labels:COUNTER,INTERPOLATED,AF3,T7,Pz,T8,AF4,RAW_CQ,GYROX,GYROY,MARKER,MARKER_HARDWARE,SYNC,TIME_STAMP_s,TIME_STAMP_ms,CQ_AF3,CQ_T7,CQ_Pz,CQ_T8,CQ_AF4
104,0,4290.769043,4315.384277,4349.743652,4171.794922,4465.641113,450,8220,8340,0,0,0,2068,105.1282043,3,3,1,0,2
105,0,4447.179199,4470.769043,4492.820313,4232.307617,4205.641113,450,8221,8325,0,0,0,2068,112.8205109,3,3,1,0,2
106,0,4374.871582,4352.820313,4420,4397.94873,4223.589844,450,8212,8342,0,0,0,2068,121.0256348,3,3,1,0,2
107,0,4103.07666,4307.179199,4440.512695,4469.230469,4229.743652,223,8227,8358,0,0,0,2068,128.7179413,3,3,1,0,2
108,0,4096.410156,4406.666504,4455.384277,4420,4157.94873,450,8230,8356,0,0,0,2068,136.9230804,3,3,1,0,2
109,0,4314.871582,4418.461426,4394.871582,4356.922852,4227.692383,450,8223,8343,0,0,0,2068,145.1282043,3,3,1,0,2
110,0,4345.12793,4326.153809,4355.384277,4354.358887,4326.666504,450,8220,8319,0,0,0,2068,152.8205109,3,3,1,0,2
111,0,4224.102539,4175.897461,4250.769043,4324.615234,4323.07666,223,8217,8331,0,0,0,2068,160.5128174,3,3,1,0,2
112,0,4278.974121,4147.179199,4131.281738,4150.256348,4384.615234,450,8229,8308,0,0,0,2068,168.2051239,3,3,1,0,2
113,0,4441.538574,4252.820313,4114.871582,4009.230713,4513.333008,450,8225,8308,0,0,0,2068,175.8974304,3,3,1,0,2
114,0,4425.641113,4255.384277,4178.974121,4087.179443,4556.922852,450,8215,8330,0,0,0,2068,184.1025543,3,3,1,0,2
115,0,4298.461426,4290.769043,4327.692383,4214.358887,4388.717773,223,8217,8315,0,0,0,2068,191.7948608,3,3,1,0,2
116,0,4232.307617,4408.717773,4445.12793,4315.384277,4171.281738,450,8226,8314,0,0,0,2068,200,3,3,1,0,2
117,0,4204.102539,4369.743652,4495.384277,4412.820313,4138.461426,450,8221,8324,0,0,0,2068,207.6923065,3,3,1,0,2
118,0,4192.820313,4226.153809,4459.487305,4340,4234.871582,450,8226,8302,0,0,0,2068,215.384613,3,3,1,0,2
119,0,4156.922852,4220.512695,4357.435547,4268.205078,4325.641113,223,8229,8297,0,0,0,2068,223.5897369,3,3,1,0,2
120,0,4078.974365,4234.358887,4238.461426,4314.871582,4440.512695,450,8222,8281,0,0,0,2068,231.2820435,3,3,1,0,2
121,0,4116.922852,4231.281738,4262.563965,4275.897461,4467.692383,450,8221,8272,0,0,0,2068,238.97435,3,3,1,0,2
122,0,4278.461426,4258.974121,4373.333008,4300.512695,4341.025391,450,8212,8279,0,0,0,2068,247.1794739,3,3,1,0,2
123,0,4301.025391,4119.487305,4229.230469,4392.307617,4363.07666,223,8223,8276,0,0,0,2068,254.8717957,3,3,1,0,2
124,0,4147.692383,3989.743408,4040.512695,4321.025391,4542.05127,450,8237,8274,0,0,0,2068,263.0769043,3,3,1,0,2
125,0,4195.384277,4212.820313,4184.615234,4178.974121,4490.769043,450,8235,8250,0,0,0,2068,270.7692261,3,3,1,0,2
126,0,4480,4476.922852,4439.487305,4142.05127,4305.641113,450,8228,8229,0,0,0,2068,278.9743652,3,3,1,0,2
127,0,4474.871582,4303.589844,4431.794922,4243.07666,4264.102539,223,8233,8218,0,0,0,2068,286.6666565,3,3,1,0,2
128,0,4203.589844,4084.102539,4301.025391,4312.307617,4321.538574,500,8243,8183,0,0,0,2068,294.3589783,3,3,1,0,2
0,0,4069.230713,4064.102539,4193.846191,4267.692383,4390.256348,500,8233,8177,0,0,0,2068,302.0512695,3,3,1,0,2
1,0,4220,4053.333252,4116.410156,4221.538574,4453.333008,500,8243,8170,0,0,0,2068,310.2564087,3,3,1,0,2
2,0,4467.692383,4266.153809,4294.358887,4354.358887,4238.974121,16082,8247,8177,0,0,0,2068,317.9487,3,3,1,0,2
3,0,4426.153809,4468.205078,4482.563965,4465.12793,3913.333252,500,8250,8210,0,0,0,2068,326.1538391,3,3,1,0,2
4,0,4130.256348,4208.717773,4349.743652,4357.94873,4031.794678,16147,8260,8232,0,0,0,2068,333.8461609,3,3,1,0,2
5,0,4130.769043,4068.205078,4214.871582,4230.256348,4203.07666,500,8261,8240,0,0,0,2068,341.5384521,3,3,1,0,2
6,0,4363.07666,4326.666504,4288.717773,4269.230469,3965.640869,271,8266,8252,0,0,0,2068,349.7435913,3,3,2,0,2
7,0,4229.230469,4316.410156,4345.641113,4424.102539,3898.974365,500,8256,8275,0,0,0,2068,357.4358826,3,3,2,0,2
8,0,4066.666504,4054.871582,4202.05127,4327.179199,4288.717773,500,8262,8311,0,0,0,2068,365.1282043,3,3,2,0,2
9,0,4212.307617,4009.743408,4016.923096,4111.281738,4482.563965,16271,8267,8320,0,0,0,2068,372.8204956,3,3,2,3,2
10,0,4236.922852,4183.589844,4156.410156,4176.922852,4209.230469,500,8264,8288,0,0,0,2068,381.0256348,3,3,2,3,2
11,0,4123.07666,4332.820313,4502.05127,4369.230469,4078.974365,254,8263,8273,0,0,0,2068,389.2307739,3,3,2,3,2
12,0,4236.410156,4352.307617,4566.153809,4391.794922,4325.12793,500,8277,8237,0,0,0,2068,396.9230652,3,3,2,3,2
13,0,4530.769043,4300.512695,4313.846191,4258.461426,4495.384277,500,8284,8250,0,0,0,2068,405.1282043,3,3,2,3,2
14,0,4540,4203.589844,4141.538574,4225.641113,4471.794922,450,8280,8269,0,0,0,2068,412.8204956,3,3,2,3,2
15,0,4320,4190.769043,4193.333008,4272.307617,4448.717773,254,8284,8257,0,0,0,2068,420.5128174,3,3,2,3,2
16,0,4407.692383,4383.589844,4277.94873,4201.025391,4388.205078,0,8285,8265,0,0,0,2068,428.717926,3,3,2,3,2
17,0,4561.538574,4445.641113,4275.384277,4182.05127,4323.07666,0,8272,8264,0,0,0,2068,436.4102478,3,3,2,3,2
18,0,4325.12793,4182.563965,4171.794922,4284.102539,4450.769043,0,8260,8278,0,0,0,2068,444.1025391,3,3,2,3,2
19,0,4093.333252,4052.307617,4235.897461,4318.974121,4534.871582,0,8252,8307,0,0,0,2068,451.7948608,3,3,2,3,2
20,0,4140.512695,4096.922852,4353.333008,4314.871582,4447.179199,0,8254,8298,0,0,0,2068,460,3,3,2,3,2
21,0,4151.281738,4068.717773,4201.538574,4334.358887,4465.641113,0,8251,8294,0,0,0,2068,467.6922913,3,3,2,3,2
22,0,4178.974121,4174.871582,4204.102539,4283.07666,4458.974121,0,8250,8283,0,0,0,2068,475.384613,3,3,2,3,2
23,0,4309.230469,4245.12793,4376.922852,4262.563965,4348.717773,0,8244,8291,0,0,0,2068,483.0769043,3,3,2,3,2
24,0,4400.512695,4105.641113,4218.974121,4251.281738,4392.307617,0,8235,8282,0,0,0,2068,491.2820435,3,3,2,3,2
25,0,4462.05127,4181.538574,4098.461426,4161.025391,4455.897461,0,8234,8275,0,0,0,2068,498.9743347,3,3,2,3,2
26,0,4457.94873,4344.615234,4322.563965,4162.563965,4410.256348,0,8232,8303,0,0,0,2068,507.1794739,3,3,2,3,2
27,0,4459.487305,4300,4318.974121,4141.538574,4412.820313,0,8233,8308,0,0,0,2068,514.8717651,3,3,2,3,2
28,0,4444.615234,4254.358887,4108.205078,4120.512695,4427.692383,0,8229,8282,0,0,0,2068,523.0769043,3,3,2,3,2
29,0,4235.384277,4223.589844,4203.07666,4378.461426,4377.435547,0,8224,8297,0,0,0,2068,530.7692261,3,3,2,3,2
30,0,4083.5896,4135.897461,4340.512695,4552.820313,4277.436035,0,8225,8268,0,0,0,2068,538.9743652,3,3,2,3,2
31,0,4278.461426,4269.230469,4340,4400.512695,4136.922852,0,8216,8268,0,0,0,2068,546.666626,3,3,2,3,2
32,0,4443.07666,4361.538574,4253.333008,4260.512695,4238.974121,0,8221,8272,0,0,0,2068,554.3589478,3,3,2,3,2
33,0,4302.05127,4145.12793,4269.743652,4263.07666,4491.794922,0,8229,8263,0,0,0,2068,562.0512695,3,3,2,3,2
34,0,4173.333008,4161.025391,4573.846191,4339.487305,4356.922852,0,8231,8276,0,0,0,2068,569.7435913,3,3,2,3,2
35,0,4258.974121,4437.94873,4685.12793,4409.230469,4192.307617,0,8231,8265,0,0,0,2068,577.9487305,3,3,2,3,2
36,0,4376.410156,4393.333008,4327.692383,4283.589844,4473.333008,0,8232,8273,0,0,0,2068,586.1538086,3,3,2,3,2
37,0,4295.897461,4121.025391,4148.717773,4248.717773,4593.333008,0,8222,8291,0,0,0,2068,593.8461304,3,3,2,3,2
38,0,4274.871582,4152.307617,4274.358887,4399.487305,4345.12793,0,8217,8309,0,0,0,2068,601.5384521,3,3,2,3,2
39,0,4443.589844,4355.897461,4217.436035,4278.461426,4354.871582,0,8214,8326,0,0,0,2068,609.2307739,3,3,2,3,2
40,0,4339.487305,4261.538574,4178.974121,4131.794922,4547.692383,0,8220,8332,0,0,0,2068,617.4358521,3,3,2,3,2
41,0,4038.974365,4071.794678,4276.922852,4296.922852,4531.281738,0,8222,8322,0,0,0,2068,625.1281738,3,3,2,3,2
42,0,4009.743408,4077.435791,4314.871582,4442.05127,4420.512695,0,8221,8331,0,0,0,2068,632.8204956,3,3,2,3,2
43,0,4125.641113,4098.974121,4284.615234,4339.487305,4447.692383,0,8227,8338,0,0,0,2068,641.0256348,3,3,2,3,2
44,0,4094.358887,4061.025635,4214.871582,4261.025391,4543.589844,0,8225,8348,0,0,0,2068,648.7179565,3,3,2,3,2
45,0,4107.179199,4150.256348,4167.179199,4286.666504,4454.358887,0,8226,8344,0,0,0,2068,656.9230347,3,3,2,3,2
46,0,4342.05127,4308.717773,4194.358887,4197.94873,4337.94873,0,8223,8326,0,0,0,2068,665.1281738,3,3,2,3,2
47,0,4448.205078,4383.07666,4322.05127,4148.717773,4401.025391,0,8214,8329,0,0,0,2068,672.8204956,3,3,2,3,2
48,0,4338.461426,4456.410156,4441.025391,4311.794922,4346.666504,0,8208,8333,0,0,0,2068,680.5128174,3,3,2,3,2
49,0,4290.256348,4480,4510.769043,4507.692383,4095.384521,0,8209,8344,0,0,0,2068,688.2051392,3,3,2,3,2
50,0,4287.179199,4319.487305,4524.102539,4555.384277,4043.5896,0,8205,8309,0,0,0,2068,695.8973999,3,3,2,3,2
51,0,4278.461426,4211.794922,4432.820313,4448.717773,4171.281738,0,8201,8295,0,0,0,2068,704.1025391,3,3,2,3,2
52,0,4392.820313,4324.102539,4262.05127,4245.12793,4256.410156,0,8206,8326,0,0,0,2068,711.7948608,3,3,2,3,2
53,0,4410.769043,4341.025391,4157.436035,4128.205078,4421.025391,0,8195,8317,0,0,0,2068,720,3,3,2,3,2
54,0,4172.820313,4173.333008,4242.05127,4238.461426,4516.922852,0,8186,8321,0,0,0,2068,727.6922607,3,3,2,3,2
55,0,4092.307617,4186.153809,4348.717773,4350.769043,4365.641113,0,8199,8323,0,0,0,2068,735.8973999,3,3,2,3,2
56,0,4299.487305,4368.205078,4415.897461,4398.974121,4224.102539,0,8195,8319,0,0,0,2068,743.5897217,3,3,2,3,2
57,0,4342.05127,4348.717773,4372.820313,4386.666504,4313.846191,0,8201,8322,0,0,0,2068,751.2820435,3,3,2,3,2
58,0,4157.436035,4231.794922,4231.794922,4239.487305,4457.435547,0,8197,8322,0,0,0,2068,759.4871826,3,3,2,3,2
59,0,4130.256348,4309.230469,4303.589844,4269.743652,4385.12793,0,8198,8314,0,0,0,2068,767.1794434,3,3,2,3,2
60,0,4342.563965,4431.281738,4437.435547,4466.666504,4213.846191,0,8205,8306,0,0,0,2068,774.8717651,3,3,2,3,2
61,0,4469.743652,4417.435547,4399.487305,4437.94873,4257.436035,0,8203,8302,0,0,0,2068,783.0769043,3,3,2,3,2
62,0,4363.07666,4365.12793,4366.666504,4332.820313,4394.358887,0,8190,8301,0,0,0,2068,790.7692261,3,3,2,3,2
63,0,4366.666504,4408.205078,4421.025391,4425.12793,4269.230469,0,8191,8311,0,0,0,2068,798.9743652,3,3,2,3,2
64,0,4478.974121,4417.435547,4387.179199,4474.871582,4150.256348,500,8187,8318,0,0,0,2068,806.666626,3,3,2,3,2
65,0,4286.153809,4326.153809,4370.256348,4400.512695,4363.07666,500,8176,8344,0,0,0,2068,814.3589478,3,3,2,3,2
66,0,4110.256348,4309.230469,4459.487305,4366.153809,4468.717773,193,8175,8343,0,0,0,2068,822.0512695,2,3,2,3,2
67,0,4295.384277,4231.281738,4306.666504,4367.179199,4351.281738,500,8170,8359,0,0,0,2068,830.2564087,2,3,2,3,2
68,0,4354.358887,4097.94873,4132.307617,4376.922852,4349.743652,172,8167,8367,0,0,0,2068,837.9486694,2,2,2,3,2
69,0,4224.102539,4248.717773,4341.538574,4288.717773,4412.820313,500,8160,8360,0,0,0,2068,846.1538086,2,2,2,3,2
70,0,4290.769043,4340.512695,4410.769043,4143.07666,4411.281738,16151,8158,8364,0,0,0,2068,853.8461304,2,2,3,3,2
71,0,4317.436035,4080.512695,4133.846191,4291.794922,4430.769043,500,8170,8355,0,0,0,2068,862.0512695,2,2,3,3,2
72,0,4211.794922,4106.153809,4222.05127,4518.461426,4405.12793,500,8163,8353,0,0,0,2068,869.7435913,2,2,3,3,2
73,0,4305.641113,4410.256348,4412.307617,4336.922852,4425.12793,94,8155,8359,0,0,0,2068,877.9486694,2,2,3,1,2
74,0,4340.512695,4220,4134.871582,4150.256348,4569.230469,500,8147,8359,0,0,0,2068,885.6409912,2,2,3,1,2
75,0,4276.410156,4033.333252,4178.461426,4382.05127,4433.333008,315,8148,8373,0,0,0,2068,893.333313,2,2,3,1,2
76,0,4385.12793,4331.794922,4587.179199,4594.871582,4126.666504,500,8144,8361,0,0,0,2068,901.0256348,2,2,3,1,2
77,0,4424.615234,4467.692383,4480,4492.307617,4158.974121,500,8149,8342,0,0,0,2068,909.2307739,2,2,3,1,2
78,0,4369.743652,4376.410156,4290.769043,4378.461426,4279.487305,450,8139,8340,0,0,0,2068,916.9230347,2,2,3,1,2
79,0,4403.07666,4396.410156,4561.538574,4522.05127,4166.153809,315,8151,8297,0,0,0,2068,925.1281738,2,2,3,1,2
80,0,4369.743652,4365.12793,4593.846191,4570.769043,4281.025391,450,8158,8285,0,0,0,2068,932.8204956,2,2,3,1,2
81,0,4282.563965,4252.820313,4265.641113,4326.153809,4620.512695,450,8162,8281,0,0,0,2068,940.5128174,2,2,3,1,2
82,0,4375.897461,4276.410156,4214.358887,4206.666504,4601.538574,450,8175,8280,0,0,0,2068,948.7178955,2,2,3,1,2
83,0,4504.102539,4347.692383,4323.589844,4290.769043,4447.692383,315,8169,8292,0,0,0,2068,956.4102173,2,2,3,1,2
84,0,4457.94873,4304.102539,4284.102539,4298.974121,4489.230469,450,8172,8273,0,0,0,2068,964.1025391,2,2,3,1,2
85,0,4392.820313,4270.769043,4256.410156,4273.333008,4532.820313,450,8167,8276,0,0,0,2068,971.7948608,2,2,3,1,2
86,0,4358.461426,4282.563965,4286.666504,4343.589844,4584.615234,450,8179,8272,0,0,0,2068,980,2,2,3,1,2
87,0,4290.769043,4289.230469,4278.974121,4375.384277,4670.256348,315,8196,8265,0,0,0,2068,988.2050781,2,2,3,1,2
88,0,4257.94873,4285.641113,4288.205078,4405.12793,4624.102539,450,8202,8266,0,0,0,2068,995.8973999,2,2,3,1,2
89,0,4284.102539,4280,4282.05127,4460,4594.871582,450,8206,8242,0,0,0,2069,3.589743614,2,2,3,1,2
90,0,4285.12793,4287.179199,4280.512695,4507.692383,4607.692383,450,8204,8230,0,0,0,2069,11.28205109,2,2,3,1,2
91,0,4270.256348,4284.615234,4321.025391,4533.333008,4507.179199,315,8219,8244,0,0,0,2069,19.4871788,2,2,3,1,2
92,0,4287.179199,4283.07666,4337.94873,4535.897461,4460,450,8214,8237,0,0,0,2069,27.17948723,2,2,3,1,2
93,0,4289.230469,4276.410156,4307.692383,4550.256348,4523.07666,450,8213,8253,0,0,0,2069,34.87179565,2,2,3,1,2
94,0,4292.307617,4277.436035,4295.897461,4552.820313,4504.102539,450,8217,8265,0,0,0,2069,43.07692337,2,2,3,1,2
95,0,4307.692383,4297.94873,4309.743652,4511.794922,4474.871582,315,8222,8266,0,0,0,2069,50.76922989,2,2,3,1,2
96,0,4336.410156,4268.205078,4261.538574,4462.05127,4541.025391,450,8225,8308,0,0,0,2069,58.9743576,2,2,3,1,2
97,0,4327.179199,4272.307617,4269.230469,4571.281738,4455.897461,450,8236,8308,0,0,0,2069,66.66666412,2,2,3,1,2
98,0,4277.436035,4384.615234,4386.153809,4656.410156,4232.820313,450,8248,8335,0,0,0,2069,74.35897064,2,2,3,1,2
99,0,4372.307617,4517.94873,4457.94873,4474.871582,4284.102539,315,8247,8372,0,0,0,2069,82.56410217,2,2,3,1,2
100,0,4317.436035,4342.563965,4251.794922,4201.025391,4335.384277,450,8246,8361,0,0,0,2069,90.25640869,2,2,3,1,2
101,0,4454.358887,4403.07666,4365.641113,4387.179199,4522.563965,450,8250,8368,0,0,0,2069,97.94871521,2,2,3,1,2
102,0,4621.025391,4604.102539,4562.05127,4552.820313,4610.769043,450,8255,8363,0,0,0,2069,106.1538467,2,2,3,1,2
103,0,4203.589844,4335.897461,4374.871582,4282.05127,4150.256348,315,8246,8365,0,0,0,2069,113.8461533,2,2,3,1,2
104,0,4538.461426,4722.05127,4943.589844,4974.871582,4506.666504,450,8255,8389,0,0,0,2069,122.0512772,2,2,3,1,2
105,0,4686.666504,4686.153809,4812.820313,4904.102539,4679.487305,450,8259,8388,0,0,0,2069,129.7435913,2,2,3,1,2
106,0,4321.538574,4215.384277,4080.512695,4007.179443,4328.205078,450,8276,8388,0,0,0,2069,137.4358978,2,2,3,1,2
107,0,4009.743408,4016.410156,3935.384521,3865.640869,4037.94873,315,8273,8386,0,0,0,2069,145.6410217,2,2,3,1,2
108,0,4423.589844,4465.641113,4624.102539,4701.538574,4450.256348,450,8264,8379,0,0,0,2069,153.3333282,2,2,3,1,2
109,0,4321.538574,4286.666504,4437.435547,4564.615234,4431.281738,450,8264,8399,0,0,0,2069,161.0256348,2,2,3,1,2
110,0,4191.794922,4134.871582,4169.743652,4265.12793,4416.922852,450,8259,8447,0,0,0,2069,169.2307587,2,2,3,1,2
111,0,4503.07666,4472.820313,4504.615234,4718.974121,4648.205078,315,8233,8377,0,0,0,2069,176.9230652,2,2,3,1,2
112,0,4421.538574,4465.12793,4512.820313,4636.922852,4287.692383,450,8232,8376,0,0,0,2069,185.1282043,2,2,3,1,2
113,0,4615.384277,4586.666504,4554.358887,4490.256348,4357.94873,450,8203,8352,0,0,0,2069,192.8205109,2,2,3,1,2
114,0,4634.358887,4440,4422.05127,4425.641113,4504.102539,450,8188,8354,0,0,0,2069,200.5128174,2,2,3,1,2
115,0,4381.538574,4258.974121,4410.769043,4547.692383,4513.333008,315,8189,8346,0,0,0,2069,208.7179413,2,2,3,1,2
116,0,4271.281738,4307.692383,4425.12793,4493.333008,4447.179199,450,8185,8341,0,0,0,2069,216.4102478,2,2,3,1,2
117,0,4483.589844,4496.922852,4462.563965,4425.12793,4362.563965,450,8186,8350,0,0,0,2069,224.1025543,2,2,3,1,2
118,0,4594.871582,4572.307617,4573.333008,4567.179199,4346.153809,450,8172,8331,0,0,0,2069,231.7948608,2,2,3,1,2
119,0,4404.615234,4418.974121,4423.589844,4450.256348,4427.692383,315,8164,8340,0,0,0,2069,240,2,2,3,1,2
120,0,4367.179199,4326.153809,4308.717773,4302.563965,4575.384277,450,8168,8340,0,0,0,2069,248.2051239,2,2,3,1,2
121,0,4292.820313,4223.589844,4401.538574,4419.487305,4452.820313,450,8159,8326,0,0,0,2069,255.8974304,2,2,3,1,2
122,0,4273.846191,4275.384277,4517.435547,4568.205078,4415.897461,450,8152,8332,0,0,0,2069,263.5897522,2,2,3,1,2
123,0,4469.743652,4463.07666,4458.974121,4469.230469,4429.743652,315,8158,8334,0,0,0,2069,271.2820435,2,2,3,1,2
124,0,4562.563965,4564.102539,4504.102539,4478.974121,4306.666504,450,8170,8348,0,0,0,2069,279.4871826,2,2,3,1,2
125,0,4458.461426,4467.692383,4518.974121,4533.333008,4375.384277,450,8208,8349,0,0,0,2069,287.1794739,2,2,3,1,2
126,0,4491.281738,4414.871582,4344.102539,4346.666504,4577.435547,450,8227,8325,0,0,0,2069,294.8717957,2,2,3,1,2
127,0,4612.307617,4603.07666,4394.358887,4385.641113,4578.461426,315,8229,8287,0,0,0,2069,303.0769043,2,2,3,1,2
128,0,4283.07666,4445.641113,4360,4356.922852,4148.717773,500,8229,8265,0,0,0,2069,310.7692261,2,2,3,1,2
0,0,4135.384277,4298.461426,4414.871582,4403.07666,4115.897461,500,8225,8267,0,0,0,2069,318.9743652,2,2,3,1,2
1,0,4193.846191,4270.769043,4419.487305,4425.12793,4263.07666,500,8217,8239,0,0,0,2069,327.1794739,2,2,3,1,2
2,0,4093.333252,4137.436035,4186.153809,4196.922852,4021.025635,0,8201,8211,0,0,0,2069,334.8717957,0,2,3,1,2
3,0,4263.589844,4264.615234,4259.487305,4207.179199,3949.230713,500,8109,8075,0,0,0,2069,342.5640869,0,2,3,1,2
4,0,4658.974121,4638.461426,4608.205078,4641.025391,4505.641113,0,8098,8055,0,0,0,2069,350.2564087,0,0,3,1,2
5,0,4303.589844,4317.94873,4381.025391,4517.435547,4499.487305,500,8042,8114,0,0,0,2069,358.4615173,0,0,3,1,2
6,0,4343.589844,4346.153809,4594.871582,4721.025391,4505.12793,55,8034,8211,0,0,0,2069,366.1538391,0,0,1,1,2
7,0,4412.307617,4410.769043,4637.435547,4827.692383,4552.307617,500,8056,8202,0,0,0,2069,373.8461304,0,0,1,1,2
8,0,4472.820313,4472.820313,4487.692383,4833.333008,4741.025391,500,8061,8177,0,0,0,2069,382.0512695,0,0,1,1,2
9,0,4672.307617,4665.641113,4600.512695,4945.641113,4755.897461,16379,8012,8144,0,0,0,2069,389.7435913,0,0,1,3,2
10,0,4458.974121,4471.794922,4467.179199,4701.538574,4427.692383,500,8006,8148,0,0,0,2069,397.9487,0,0,1,3,2
11,0,4689.743652,4666.666504,4614.871582,4828.205078,4884.102539,0,8067,8197,0,0,0,2069,405.6410217,0,0,1,3,0
12,0,5032.820313,5031.281738,5003.07666,5177.94873,5207.179199,500,8088,8237,0,0,0,2069,413.333313,0,0,1,3,0
13,0,4511.794922,4574.358887,4715.897461,4737.435547,4455.897461,500,8094,8313,0,0,0,2069,421.0256348,0,0,1,3,0
14,0,4075.897217,4090.769043,4189.743652,4143.589844,4028.717773,450,8094,8327,0,0,0,2069,429.2307739,0,0,1,3,0
15,0,4607.179199,4629.230469,4550.769043,4543.07666,4638.974121,0,8098,8285,0,0,0,2069,436.9230652,0,0,1,3,0
16,0,4669.230469,4765.641113,4623.589844,4634.358887,4656.410156,0,8111,8273,0,0,0,2069,445.1282043,0,0,1,3,0
17,0,4373.846191,4488.205078,4362.563965,4308.205078,4264.615234,0,8120,8241,0,0,0,2069,452.8204956,0,0,1,3,0
18,0,4575.384277,4666.666504,4576.410156,4560.512695,4575.897461,0,8134,8233,0,0,0,2069,461.0256348,0,0,1,3,0
19,0,4332.307617,4458.461426,4459.487305,4468.717773,4524.102539,0,8140,8255,0,0,0,2069,468.717926,0,0,1,3,0
20,0,4329.743652,4459.487305,4490.769043,4490.256348,4432.307617,0,8153,8258,0,0,0,2069,476.4102478,0,0,1,3,0
21,0,4474.358887,4526.666504,4501.538574,4501.538574,4279.487305,0,8159,8270,0,0,0,2069,484.1025391,0,0,1,3,0
22,0,4458.974121,4469.230469,4478.974121,4478.461426,4230.256348,0,8156,8253,0,0,0,2069,492.3076782,0,0,1,3,0
23,0,4492.307617,4483.07666,4498.461426,4501.025391,4338.974121,0,8181,8230,0,0,0,2069,500,0,0,1,3,0
24,0,4481.538574,4485.12793,4480.512695,4485.641113,4236.922852,0,8193,8233,0,0,0,2069,508.2051086,0,0,1,3,0
25,0,4474.358887,4471.794922,4481.538574,4493.846191,4244.102539,0,8189,8211,0,0,0,2069,515.8973999,0,0,1,3,0
26,0,4523.07666,4517.94873,4506.666504,4490.256348,4457.94873,0,8194,8192,0,0,0,2069,524.1025391,0,0,1,3,0
27,0,4471.281738,4487.179199,4490.256348,4489.230469,4455.384277,0,8192,8197,0,0,0,2069,531.7948608,0,0,1,3,0
28,0,4461.025391,4444.615234,4462.05127,4486.153809,4331.281738,0,8197,8197,0,0,0,2069,539.4871826,0,0,1,3,0
29,0,4658.461426,4653.333008,4598.974121,4490.256348,4496.922852,0,8201,8232,0,0,0,2069,547.1794434,0,0,1,3,0
30,0,4770.769043,4796.410156,4690.256348,4477.435547,4709.743652,0,8186,8226,0,0,0,2069,554.8717651,0,0,1,3,0
31,0,4635.384277,4570.769043,4547.692383,4491.281738,4686.153809,0,8183,8217,0,0,0,2069,563.0769043,0,0,1,3,0
32,0,4564.615234,4413.333008,4444.615234,4538.461426,4692.307617,0,8195,8206,0,0,0,2069,570.7692261,0,0,1,3,0
33,0,4562.05127,4505.12793,4489.230469,4538.974121,4640,0,8197,8185,0,0,0,2069,578.9743652,0,0,1,3,0
34,0,4482.05127,4520.512695,4530.769043,4637.435547,4510.769043,0,8189,8192,0,0,0,2069,586.666626,0,0,1,3,0
35,0,4473.846191,4472.820313,4566.666504,4708.717773,4488.717773,0,8200,8173,0,0,0,2069,594.8717651,0,0,1,3,0
36,0,4511.794922,4493.846191,4567.692383,4639.487305,4516.922852,0,8190,8165,0,0,0,2069,602.5640869,0,0,1,3,0
37,0,4460.512695,4474.358887,4391.281738,4409.743652,4457.94873,0,8186,8219,0,0,0,2069,610.2564087,0,0,1,3,0
38,0,4520,4522.05127,4440,4400,4509.743652,0,8191,8224,0,0,0,2069,618.4615479,0,0,1,3,0
39,0,4448.717773,4444.615234,4540,4494.871582,4479.487305,0,8200,8229,0,0,0,2069,626.1538086,0,0,1,3,0
40,0,4282.563965,4283.589844,4462.05127,4511.281738,4383.07666,0,8194,8223,0,0,0,2069,633.8461304,0,0,1,3,0
41,0,4195.384277,4196.922852,4361.025391,4482.563965,4360,0,8202,8204,0,0,0,2069,642.0512695,0,0,1,3,0
42,0,4324.615234,4329.230469,4449.230469,4494.358887,4404.102539,0,8205,8183,0,0,0,2069,649.7435913,0,0,1,3,0
43,0,4500.512695,4488.717773,4493.846191,4489.230469,4345.12793,0,8209,8155,0,0,0,2069,657.9487305,0,0,1,3,0
44,0,4535.897461,4538.974121,4510.769043,4504.102539,4287.179199,0,8206,8150,0,0,0,2069,665.6409912,0,0,1,3,0
45,0,4466.153809,4476.922852,4500,4508.205078,4372.820313,0,8208,8178,0,0,0,2069,673.333313,0,0,1,3,0
46,0,4498.974121,4427.692383,4332.820313,4333.333008,4475.384277,0,8202,8201,0,0,0,2069,681.0256348,0,0,1,3,0
47,0,4550.769043,4444.615234,4270.256348,4222.05127,4445.641113,0,8206,8260,0,0,0,2069,689.2307739,0,0,1,3,0
48,0,4325.12793,4309.230469,4282.05127,4264.102539,4331.281738,0,8210,8251,0,0,0,2069,696.9230347,0,0,1,3,0
49,0,4227.692383,4257.436035,4300.512695,4368.717773,4365.641113,0,8198,8255,0,0,0,2069,705.1281738,0,0,1,3,0
50,0,4278.461426,4268.205078,4299.487305,4396.922852,4305.641113,0,8163,8291,0,0,0,2069,712.8204956,0,0,1,3,0
51,0,4303.07666,4285.641113,4313.333008,4393.846191,4285.12793,0,8180,8321,0,0,0,2069,721.0256348,0,0,1,3,0
52,0,4256.410156,4272.820313,4267.179199,4329.743652,4269.230469,0,8195,8334,0,0,0,2069,728.7179565,0,0,1,3,0
53,0,4285.641113,4291.794922,4392.307617,4437.94873,4255.897461,0,8211,8301,0,0,0,2069,736.4102173,0,0,1,3,0
54,0,4288.205078,4254.871582,4511.794922,4538.974121,4373.846191,0,8213,8214,0,0,0,2069,744.1025391,0,0,1,3,0
55,0,4338.461426,4394.871582,4522.05127,4534.871582,4559.487305,0,8197,8194,0,0,0,2069,752.3076782,0,0,1,3,0
56,0,4363.589844,4544.102539,4487.179199,4488.717773,4489.230469,0,8199,8252,0,0,0,2069,760,0,0,1,3,0
57,0,4380.512695,4514.871582,4502.05127,4485.641113,4397.94873,0,8192,8319,0,0,0,2069,768.2051392,0,0,1,3,0
58,0,4401.025391,4453.846191,4487.179199,4489.230469,4371.794922,0,8187,8369,0,0,0,2069,775.8973999,0,0,1,3,0
59,0,4205.12793,4303.589844,4286.153809,4321.025391,4085.128174,0,8192,8360,0,0,0,2069,784.1025391,0,0,1,3,0
60,0,3726.153809,3735.897461,3722.05127,3746.666504,3676.923096,0,8176,8338,0,0,0,2069,791.7948608,0,0,1,3,0
61,0,3741.025635,3535.384521,3542.05127,3529.230713,3805.128174,0,8193,8334,0,0,0,2069,799.4871826,0,0,1,3,0
62,0,4173.846191,4009.743408,4030.256348,4067.179443,4224.615234,0,8188,8309,0,0,0,2069,807.1794434,0,0,1,3,0
63,0,4398.974121,4418.974121,4448.205078,4540.512695,4590.256348,0,8180,8280,0,0,0,2069,814.8717651,0,0,1,3,0
64,0,4390.769043,4413.333008,4413.846191,4413.333008,4696.410156,500,8170,8233,0,0,0,2069,823.0769043,0,0,1,3,0
65,0,4580,4547.179199,4541.538574,4449.743652,4616.922852,500,8168,8249,0,0,0,2069,830.7692261,0,0,1,3,0
66,0,4641.538574,4681.538574,4685.641113,4649.230469,4442.05127,0,8155,8259,0,0,0,2069,838.9743652,0,0,1,3,0
67,0,4576.922852,4658.974121,4658.461426,4512.307617,4388.205078,500,8137,8271,0,0,0,2069,847.1794434,0,0,1,3,0
68,0,4627.179199,4632.307617,4627.179199,4411.281738,4423.589844,0,8133,8330,0,0,0,2069,854.8717651,0,0,1,3,0
69,0,4456.410156,4436.922852,4432.307617,4382.05127,4214.358887,500,8172,8340,0,0,0,2069,862.5640869,0,0,1,3,0
70,0,4341.538574,4345.12793,4341.538574,4406.666504,4152.820313,0,8147,8367,0,0,0,2069,870.2564087,0,0,0,3,0
71,0,4298.974121,4308.717773,4324.615234,4307.692383,4137.94873,500,8135,8396,0,0,0,2069,877.9486694,0,0,0,3,0
72,0,4019.487061,4003.5896,4007.179443,4058.974365,3922.563965,500,8145,8375,0,0,0,2069,886.1538086,0,0,0,3,0
73,0,3963.5896,3962.05127,4023.076904,4142.05127,4082.563965,0,8139,8351,0,0,0,2069,893.8461304,0,0,0,0,0
74,0,4448.205078,4513.846191,4721.538574,4703.589844,4569.743652,500,8155,8347,0,0,0,2069,902.0512695,0,0,0,0,0
75,0,4518.461426,4593.846191,4776.410156,4642.563965,4301.025391,14,8161,8343,0,0,0,2069,909.7435913,0,0,0,0,0
76,0,4587.179199,4583.07666,4578.461426,4576.410156,4266.666504,500,8185,8325,0,0,0,2069,917.9486694,0,0,0,0,0
77,0,4693.333008,4667.692383,4615.384277,4595.384277,4471.794922,500,8196,8311,0,0,0,2069,925.6409912,0,0,0,0,0
78,0,4854.358887,4889.743652,4949.230469,4750.769043,4753.333008,450,8205,8353,0,0,0,2069,933.333313,0,0,0,0,0
79,0,4442.563965,4363.589844,4429.230469,4346.666504,4554.871582,14,8217,8369,0,0,0,2069,941.0256348,0,0,0,0,0
80,0,4306.153809,4010.769043,3973.845947,4029.230713,4456.410156,450,8224,8341,0,0,0,2069,949.2307739,0,0,0,0,0
81,0,4640,4393.846191,4321.538574,4333.333008,4690.256348,450,8222,8343,0,0,0,2069,956.9230347,0,0,0,0,0
82,0,4217.94873,4238.974121,4242.563965,4218.974121,4390.256348,450,8227,8309,0,0,0,2069,965.1281738,0,0,0,0,0
83,0,4043.076904,4056.923096,4082.05127,4100,4324.615234,14,8228,8307,0,0,0,2069,972.8204956,0,0,0,0,0
84,0,4487.179199,4336.410156,4238.974121,4222.05127,4456.410156,450,8228,8306,0,0,0,2069,981.0256348,0,0,0,0,0
85,0,4945.641113,4917.435547,4793.846191,4760.512695,4765.641113,450,8260,8256,0,0,0,2069,988.7178955,0,0,0,0,0
86,0,4428.205078,4574.358887,4563.07666,4598.461426,4531.794922,450,8276,8232,0,0,0,2069,996.4102173,0,0,0,0,0
87,0,4279.487305,4455.897461,4513.333008,4494.358887,4513.333008,14,8281,8201,0,0,0,2070,4.102563858,0,0,0,0,0
88,0,4501.538574,4657.94873,4694.871582,4687.179199,4670.256348,450,8293,8215,0,0,0,2070,11.79487133,0,0,0,0,0
89,0,4474.871582,4541.538574,4556.410156,4595.897461,4648.717773,450,8299,8218,0,0,0,2070,20,0,0,0,0,0
90,0,4558.974121,4527.179199,4544.615234,4642.563965,4832.307617,450,8292,8190,0,0,0,2070,28.20512772,0,0,0,0,0
91,0,4418.461426,4403.07666,4411.281738,4450.769043,4595.384277,14,8285,8186,0,0,0,2070,35.89743423,0,0,0,0,0
92,0,4519.487305,4541.538574,4542.563965,4510.769043,4600,450,8272,8175,0,0,0,2070,44.10256195,0,0,0,0,0
93,0,4495.897461,4485.641113,4480,4485.12793,4565.12793,450,8255,8180,0,0,0,2070,51.79487228,0,0,0,0,0
94,0,4481.025391,4468.205078,4467.179199,4473.846191,4380,450,8242,8208,0,0,0,2070,60,0,0,0,0,0
95,0,4502.563965,4509.743652,4509.230469,4505.12793,4272.820313,14,8234,8228,0,0,0,2070,67.69230652,0,0,0,0,0
96,0,4413.333008,4476.922852,4475.897461,4472.307617,4215.897461,450,8227,8241,0,0,0,2070,75.38461304,0,0,0,0,0
97,0,4434.871582,4500,4499.487305,4500.512695,4309.743652,450,8221,8240,0,0,0,2070,83.58974457,0,0,0,0,0
98,0,4493.846191,4486.666504,4484.102539,4486.153809,4389.230469,450,8208,8219,0,0,0,2070,91.28205109,0,0,0,0,0
99,0,4503.589844,4491.794922,4487.692383,4485.12793,4428.205078,14,8199,8237,0,0,0,2070,98.9743576,0,0,0,0,0
100,0,4480.512695,4492.307617,4482.05127,4473.846191,4422.05127,450,8188,8237,0,0,0,2070,107.1794815,0,0,0,0,0
101,0,4490.769043,4489.230469,4500.512695,4505.641113,4398.974121,450,8187,8238,0,0,0,2070,114.8717957,0,0,0,0,0
102,0,4498.974121,4494.871582,4481.538574,4481.025391,4452.307617,450,8198,8243,0,0,0,2070,122.5641022,0,0,0,0,0
103,0,4488.205078,4504.615234,4496.410156,4474.871582,4644.615234,14,8203,8228,0,0,0,2070,130.2564087,0,0,0,0,0
104,0,4492.820313,4486.153809,4591.281738,4641.538574,4787.692383,450,8198,8249,0,0,0,2070,138.4615326,0,0,0,0,0
105,0,4507.692383,4493.846191,4640,4743.07666,4596.410156,450,8193,8272,0,0,0,2070,146.1538391,0,0,0,0,0
106,0,4510.769043,4533.846191,4692.307617,4760.512695,4438.974121,450,8191,8284,0,0,0,2070,153.8461456,0,0,0,0,0
107,0,4469.230469,4418.461426,4586.153809,4627.692383,4486.153809,14,8185,8294,0,0,0,2070,162.0512848,0,0,0,0,0
108,0,4481.538574,4289.743652,4321.538574,4391.794922,4546.153809,450,8181,8279,0,0,0,2070,169.7435913,0,0,0,0,0
109,0,4432.307617,4271.281738,4197.436035,4275.384277,4433.333008,450,8175,8326,0,0,0,2070,177.9487152,0,0,0,0,0
110,0,4215.384277,4333.333008,4359.487305,4392.820313,4193.333008,450,8177,8351,0,0,0,2070,185.6410217,0,0,0,0,0
111,0,3990.256348,4181.538574,4196.410156,4176.410156,3967.179443,14,8168,8367,0,0,0,2070,193.3333282,0,0,0,0,0
112,0,4101.538574,4021.025635,4015.897217,4044.102539,4106.153809,450,8167,8382,0,0,0,2070,201.0256348,0,0,0,0,0
113,0,4301.538574,4138.461426,4257.436035,4287.692383,4320.512695,450,8168,8363,0,0,0,2070,209.2307587,0,0,0,0,0
114,0,4303.589844,4321.538574,4467.692383,4342.05127,4302.05127,450,8180,8329,0,0,0,2070,216.9230652,0,0,0,0,0
115,0,4226.153809,4270.769043,4390.769043,4232.307617,4251.281738,14,8188,8340,0,0,0,2070,225.1282043,0,0,0,0,0
116,0,4316.922852,4290.256348,4451.794922,4388.205078,4284.102539,450,8195,8328,0,0,0,2070,232.8205109,0,0,0,0,0
117,0,4290.769043,4294.358887,4488.205078,4504.102539,4291.281738,450,8209,8307,0,0,0,2070,241.0256348,0,0,0,0,0
118,0,4131.281738,4065.128174,4200.512695,4268.205078,4288.717773,450,8217,8290,0,0,0,2070,248.7179413,0,0,0,0,0
119,0,4280,4152.820313,4178.461426,4191.281738,4258.461426,14,8229,8295,0,0,0,2070,256.4102478,0,0,0,0,0
120,0,4546.666504,4536.922852,4502.563965,4455.384277,4269.230469,450,8234,8314,0,0,0,2070,264.615387,0,0,0,0,0
121,0,4514.358887,4542.563965,4540.512695,4626.153809,4442.05127,450,8238,8322,0,0,0,2070,272.3076782,0,0,0,0,0
122,0,4417.94873,4404.102539,4418.461426,4480,4512.820313,450,8255,8361,0,0,0,2070,280,0,0,0,0,0
123,0,4656.410156,4650.769043,4627.179199,4476.922852,4573.333008,14,8248,8330,0,0,0,2070,288.2051086,0,0,0,0,0
124,0,4767.179199,4778.461426,4780,4697.435547,4671.794922,450,8235,8292,0,0,0,2070,295.8974304,0,0,0,0,0
125,0,4703.589844,4702.563965,4700.512695,4753.333008,4588.205078,450,8238,8309,0,0,0,2070,304.1025696,0,0,0,0,0
126,0,4669.743652,4680,4685.641113,4670.769043,4387.692383,450,8253,8293,0,0,0,2070,311.7948608,0,0,0,0,0
127,0,4723.589844,4728.205078,4734.871582,4680,4583.589844,14,8265,8282,0,0,0,2070,320,0,0,0,0,0
128,0,4706.153809,4689.743652,4667.179199,4625.641113,4764.102539,500,8261,8240,0,0,0,2070,327.6922913,0,0,0,0,0
0,0,4695.384277,4719.487305,4735.897461,4714.358887,4702.563965,500,8271,8220,0,0,0,2070,335.384613,0,0,0,0,0
1,0,4686.153809,4663.589844,4702.563965,4779.487305,4662.05127,500,8268,8250,0,0,0,2070,343.0769043,0,0,0,0,0
2,0,4698.461426,4554.358887,4514.871582,4630.769043,4703.589844,12,8263,8271,0,0,0,2070,351.2820435,0,0,0,0,0
3,0,4657.435547,4487.692383,4382.563965,4453.846191,4697.435547,500,8251,8283,0,0,0,2070,358.9743652,0,0,0,0,0
4,0,4585.12793,4514.871582,4529.743652,4565.641113,4706.153809,0,8254,8292,0,0,0,2070,367.1794739,0,0,0,0,0
5,0,4526.153809,4556.922852,4725.12793,4722.05127,4663.07666,500,8253,8291,0,0,0,2070,374.8717957,0,0,0,0,0
6,0,4548.717773,4575.897461,4714.358887,4701.025391,4704.615234,0,8245,8289,0,0,0,2070,383.0769043,0,0,0,0,0
7,0,4690.256348,4661.025391,4666.153809,4690.256348,4892.820313,500,8234,8252,0,0,0,2070,390.7692261,0,0,0,0,0
8,0,4926.666504,4873.846191,4763.589844,4702.563965,4971.794922,500,8229,8237,0,0,0,2070,398.4615173,0,0,0,0,0
9,0,4981.025391,4961.025391,4838.461426,4685.641113,4889.230469,0,8227,8250,0,0,0,2070,406.1538391,0,0,0,0,0
10,0,4741.025391,4754.358887,4747.692383,4708.717773,4845.12793,500,8235,8245,0,0,0,2070,413.8461304,0,0,0,0,0
11,0,4653.333008,4640.512695,4650.769043,4731.281738,4877.94873,0,8242,8263,0,0,0,2070,422.0512695,0,0,0,0,0
12,0,4716.410156,4701.538574,4640,4536.922852,4760.512695,500,8231,8294,0,0,0,2070,430.2564087,0,0,0,0,0
13,0,4720,4790.256348,4832.820313,4568.205078,4667.179199,500,8232,8303,0,0,0,2070,437.9487,0,0,0,0,0
14,0,4651.794922,4681.025391,4829.230469,4747.692383,4664.102539,450,8204,8343,0,0,0,2070,446.1538391,0,0,0,0,0
15,0,4729.743652,4557.435547,4661.025391,4741.025391,4764.615234,0,8195,8339,0,0,0,2070,453.8461304,0,0,0,0,0
16,0,4631.794922,4514.358887,4616.922852,4625.641113,4604.102539,0,8188,8345,0,0,0,2070,461.5384521,0,0,0,0,0
17,0,4456.410156,4513.333008,4748.717773,4764.615234,4444.102539,0,8181,8326,0,0,0,2070,469.7435913,0,0,0,0,0
18,0,4435.384277,4412.820313,4661.025391,4657.435547,4461.538574,0,8177,8301,0,0,0,2070,477.4358826,0,0,0,0,0
19,0,4557.435547,4582.05127,4649.230469,4449.743652,4513.846191,0,8157,8320,0,0,0,2070,485.1282043,0,0,0,0,0
20,0,4455.897461,4666.153809,4609.230469,4455.384277,4478.974121,0,8156,8309,0,0,0,2070,492.8204956,0,0,0,0,0
21,0,4287.692383,4472.820313,4477.94873,4512.820313,4470.769043,0,8153,8319,0,0,0,2070,501.0256348,0,0,0,0,0
22,0,4206.666504,4359.487305,4457.94873,4486.153809,4487.179199,0,8145,8309,0,0,0,2070,508.717926,0,0,0,0,0
23,0,4323.589844,4471.281738,4499.487305,4465.12793,4511.794922,0,8138,8287,0,0,0,2070,516.4102173,0,0,0,0,0
24,0,4500,4513.333008,4491.794922,4502.563965,4455.897461,0,8140,8322,0,0,0,2070,524.1025391,0,0,0,0,0
25,0,4514.871582,4466.153809,4461.538574,4480.512695,4479.487305,0,8144,8330,0,0,0,2070,532.3076782,0,0,0,0,0
26,0,4482.563965,4497.94873,4484.615234,4473.333008,4625.641113,0,8143,8327,0,0,0,2070,540,0,0,0,0,0
27,0,4479.487305,4483.07666,4505.641113,4508.205078,4568.717773,0,8137,8340,0,0,0,2070,548.2051392,0,0,0,0,0
28,0,4522.05127,4492.820313,4474.871582,4492.820313,4447.692383,0,8151,8340,0,0,0,2070,555.8973999,0,0,0,0,0
29,0,4490.256348,4511.794922,4481.025391,4494.871582,4469.743652,0,8153,8341,0,0,0,2070,564.1025391,0,0,0,0,0
30,0,4489.743652,4494.871582,4635.897461,4640,4535.897461,0,8154,8350,0,0,0,2070,571.7948608,0,0,0,0,0
31,0,4500.512695,4497.94873,4753.846191,4722.05127,4463.589844,0,8158,8351,0,0,0,2070,579.4871826,0,0,0,0,0
32,0,4512.307617,4617.94873,4748.717773,4703.589844,4495.897461,0,8161,8348,0,0,0,2070,587.6923218,0,0,0,0,0
33,0,4433.846191,4532.307617,4566.666504,4563.589844,4505.12793,0,8168,8327,0,0,0,2070,595.3845825,0,0,0,0,0
34,0,4370.769043,4350.256348,4472.820313,4486.666504,4482.05127,0,8165,8304,0,0,0,2070,603.0769043,0,0,0,0,0
35,0,4335.384277,4328.717773,4464.615234,4452.307617,4474.358887,0,8156,8295,0,0,0,2070,610.7692261,0,0,0,0,0
36,0,4297.436035,4440.512695,4518.461426,4539.487305,4510.769043,0,8180,8296,0,0,0,2070,618.9743652,0,0,0,0,0
37,0,4205.641113,4387.179199,4472.307617,4448.205078,4385.641113,0,8190,8314,0,0,0,2070,627.1794434,0,0,0,0,0
38,0,4346.666504,4424.102539,4471.281738,4311.281738,4298.974121,0,8211,8328,0,0,0,2070,634.8717651,0,0,0,0,0
39,0,4515.897461,4506.666504,4497.94873,4354.358887,4355.384277,0,8230,8312,0,0,0,2070,643.0769043,0,0,0,0,0
40,0,4524.102539,4496.922852,4483.07666,4413.846191,4461.025391,0,8221,8318,0,0,0,2070,650.7692261,0,0,0,0,0
41,0,4473.333008,4482.05127,4471.281738,4377.435547,4475.897461,0,8213,8327,0,0,0,2070,658.4615479,0,0,0,0,0
42,0,4492.820313,4501.025391,4508.205078,4466.153809,4494.358887,0,8211,8341,0,0,0,2070,666.1538086,0,0,0,0,0
43,0,4512.820313,4488.205078,4537.94873,4667.692383,4505.12793,0,8198,8354,0,0,0,2070,674.3589478,0,0,0,0,0
44,0,4470.256348,4475.384277,4575.384277,4699.487305,4469.230469,0,8201,8342,0,0,0,2070,682.0512695,0,0,0,0,0
45,0,4480,4566.666504,4681.538574,4676.410156,4488.717773,0,8190,8351,0,0,0,2070,689.7435913,0,0,0,0,0
46,0,4506.153809,4621.025391,4740.512695,4726.666504,4502.05127,0,8181,8342,0,0,0,2070,697.9487305,0,0,0,0,0
47,0,4476.922852,4534.358887,4696.922852,4716.410156,4478.461426,0,8184,8351,0,0,0,2070,706.1538086,0,0,0,0,0
48,0,4465.12793,4513.333008,4694.871582,4657.94873,4454.871582,0,8180,8348,0,0,0,2070,713.8461304,0,0,0,0,0
49,0,4630.769043,4661.025391,4736.922852,4686.666504,4631.281738,0,8183,8327,0,0,0,2070,721.5384521,0,0,0,0,0
50,0,4757.94873,4723.589844,4627.179199,4567.179199,4752.820313,0,8177,8319,0,0,0,2070,729.2307739,0,0,0,0,0
51,0,4731.794922,4714.871582,4587.692383,4452.307617,4707.692383,0,8179,8308,0,0,0,2070,736.9230347,0,0,0,0,0
52,0,4612.307617,4567.692383,4533.846191,4459.487305,4683.589844,0,8185,8307,0,0,0,2070,745.1281738,0,0,0,0,0
53,0,4612.307617,4475.897461,4476.922852,4514.358887,4728.717773,0,8223,8311,0,0,0,2070,752.8204956,0,0,0,0,0
54,0,4539.487305,4463.07666,4466.666504,4490.769043,4680,0,8233,8303,0,0,0,2070,761.0256348,0,0,0,0,0
55,0,4487.179199,4507.692383,4497.435547,4532.820313,4737.94873,0,8219,8285,0,0,0,2070,768.7179565,0,0,0,0,0
56,0,4465.12793,4481.025391,4467.179199,4521.538574,4658.974121,0,8192,8261,0,0,0,2070,776.9230347,0,0,0,0,0
57,0,4477.435547,4480.512695,4531.794922,4632.307617,4460.512695,0,8165,8241,0,0,0,2070,784.6153564,0,0,0,0,0
58,0,4491.794922,4471.281738,4519.487305,4677.435547,4438.461426,0,8149,8241,0,0,0,2070,792.8204956,0,0,0,0,0
59,0,4512.820313,4530.256348,4536.922852,4502.05127,4520,0,8150,8229,0,0,0,2070,800.5128174,0,0,0,0,0
60,0,4445.641113,4547.179199,4611.281738,4421.538574,4472.820313,0,8167,8221,0,0,0,2070,808.7179565,0,0,0,0,0
61,0,4520.512695,4524.615234,4565.12793,4535.384277,4491.794922,0,8171,8220,0,0,0,2070,816.4102173,0,0,0,0,0
62,0,4663.589844,4516.922852,4393.333008,4462.05127,4558.461426,0,8181,8230,0,0,0,2070,824.6153564,0,0,0,0,0
63,0,4653.846191,4616.410156,4551.794922,4505.12793,4683.07666,0,8198,8262,0,0,0,2070,832.8204956,0,0,0,0,0
64,0,4367.692383,4487.179199,4648.717773,4634.871582,4643.589844,500,8217,8258,0,0,0,2070,840.5128174,0,0,0,0,0
65,0,4321.538574,4459.487305,4608.717773,4625.12793,4515.897461,500,8230,8266,0,0,0,2070,848.7179565,0,0,0,0,0
66,0,4613.333008,4638.461426,4641.025391,4634.358887,4528.205078,0,8231,8275,0,0,0,2070,856.4102173,0,0,0,0,0
67,0,4642.05127,4487.179199,4408.205078,4429.230469,4429.743652,500,8255,8274,0,0,0,2070,864.6153564,0,0,0,0,0
68,0,4529.743652,4439.487305,4347.179199,4348.205078,4375.384277,0,8263,8286,0,0,0,2070,872.3076782,0,0,0,0,0
69,0,4356.410156,4524.615234,4513.333008,4472.820313,4455.384277,500,8270,8266,0,0,0,2070,880.5128174,0,0,0,0,0
70,0,4489.230469,4588.205078,4600,4684.615234,4744.615234,0,8268,8241,0,0,0,2070,888.2050781,0,0,0,0,0
71,0,4447.692383,4255.384277,4235.897461,4394.358887,4566.666504,500,8259,8242,0,0,0,2070,896.4102173,0,0,0,0,0
72,0,4471.281738,4364.102539,4390.256348,4405.12793,4497.94873,500,8280,8233,0,0,0,2070,904.6153564,0,0,0,0,0
73,0,4333.846191,4491.281738,4575.897461,4529.230469,4376.922852,0,8278,8235,0,0,0,2070,912.3076782,0,0,0,0,0
74,0,4322.563965,4477.94873,4506.153809,4553.846191,4282.05127,500,8274,8231,0,0,0,2070,920.5128174,0,0,0,0,0
75,0,4342.563965,4418.461426,4396.410156,4361.025391,4174.871582,0,8194,8296,0,0,0,2070,928.2050781,0,0,0,0,0
76,0,4540,4609.230469,4602.05127,4462.563965,4431.794922,500,8172,8374,0,0,0,2070,936.4102173,0,0,0,0,0
77,0,4400.512695,4382.563965,4386.666504,4430.769043,4472.307617,500,8102,8325,0,0,0,2070,944.1025391,0,0,0,0,0
78,0,4008.717773,3873.333252,3893.333252,4018.974365,4185.641113,450,8136,8277,0,0,0,2070,952.3076782,0,0,0,0,0
79,0,4231.281738,4161.025391,4132.307617,4152.307617,4327.179199,0,8184,8240,0,0,0,2070,960,0,0,0,0,0
80,0,4497.94873,4520.512695,4525.12793,4512.820313,4473.333008,450,8186,8255,0,0,0,2070,968.2050781,0,0,0,0,0
81,0,4384.615234,4408.717773,4606.666504,4605.12793,4373.846191,450,8186,8291,0,0,0,2070,976.4102173,0,0,0,0,0
82,0,4298.461426,4321.538574,4581.025391,4585.12793,4322.05127,450,8175,8312,0,0,0,2070,984.1025391,0,0,0,0,0
83,0,4580.512695,4595.897461,4585.12793,4588.205078,4575.384277,0,8167,8314,0,0,0,2070,992.3076782,0,0,0,0,0
84,0,4717.94873,4687.692383,4508.717773,4467.179199,4695.897461,450,8168,8297,0,0,0,2071,0,0,0,0,0,0
85,0,4521.025391,4440,4529.743652,4458.974121,4532.307617,450,8176,8287,0,0,0,2071,8.205127716,0,0,0,0,0
86,0,4458.974121,4421.538574,4635.897461,4549.743652,4467.179199,450,8173,8313,0,0,0,2071,15.89743519,0,0,0,0,0
87,0,4596.410156,4622.563965,4594.358887,4453.846191,4550.769043,0,8178,8324,0,0,0,2071,24.10256386,0,0,0,0,0
88,0,4787.179199,4698.974121,4573.846191,4514.358887,4741.538574,450,8180,8317,0,0,0,2071,31.79487038,0,0,0,0,0
89,0,4693.333008,4469.230469,4462.563965,4502.05127,4679.487305,450,8119,8294,0,0,0,2071,40,0,0,0,0,0
90,0,4624.615234,4523.589844,4530.769043,4524.615234,4577.94873,450,8116,8252,0,0,0,2071,48.20512772,0,0,0,0,0
91,0,4494.358887,4569.743652,4553.846191,4544.102539,4457.435547,0,8164,8254,0,0,0,2071,55.89743423,0,0,0,0,0
92,0,4383.589844,4361.538574,4339.487305,4368.205078,4437.94873,450,8199,8244,0,0,0,2071,64.10256195,0,0,0,0,0
93,0,4690.769043,4525.641113,4397.94873,4398.974121,4673.846191,450,8192,8258,0,0,0,2071,71.79486847,0,0,0,0,0
94,0,4272.307617,4201.538574,4102.563965,4081.53833,4098.461426,450,8207,8296,0,0,0,2071,80,0,0,0,0,0
95,0,3379.487061,3413.846191,3454.358887,3521.025635,3291.281982,0,8216,8288,0,0,0,2071,87.69230652,0,0,0,0,0
96,0,3329.743408,3339.487061,3426.666504,3515.897461,3392.820313,450,8220,8292,0,0,0,2071,95.89743042,0,0,0,0,0
97,0,4067.179443,4051.794678,4097.94873,3998.974365,4026.153809,450,8222,8301,0,0,0,2071,103.5897446,0,0,0,0,0
98,0,4091.281982,4097.94873,4089.230713,3922.563965,4103.589844,450,8217,8288,0,0,0,2071,111.7948685,0,0,0,0,0
99,0,3725.640869,3731.794678,3737.435791,3765.640869,3950.769043,0,8217,8308,0,0,0,2071,120,0,0,0,0,0
100,0,4060,4043.5896,4049.743408,4078.974365,4044.615234,450,8217,8312,0,0,0,2071,127.6923065,0,0,0,0,0
101,0,4363.589844,4367.692383,4322.563965,4139.487305,4060,450,8219,8313,0,0,0,2071,135.8974304,0,0,0,0,0
102,0,4309.743652,4287.179199,4236.922852,4113.846191,4251.281738,450,8216,8336,0,0,0,2071,143.5897369,0,0,0,0,0
103,0,4440.512695,4403.07666,4379.487305,4335.384277,4545.12793,0,8212,8326,0,0,0,2071,151.7948608,0,0,0,0,0
104,0,4642.05127,4737.94873,4696.922852,4565.12793,4541.025391,450,8203,8320,0,0,0,2071,159.4871826,0,0,0,0,0
105,0,4631.281738,4791.794922,4727.692383,4540.512695,4472.307617,450,8209,8320,0,0,0,2071,167.6923065,0,0,0,0,0
106,0,4667.692383,4677.94873,4623.07666,4481.538574,4669.743652,450,8212,8303,0,0,0,2071,175.384613,0,0,0,0,0
107,0,4521.025391,4471.281738,4455.897461,4407.179199,4646.153809,0,8202,8323,0,0,0,2071,183.5897369,0,0,0,0,0
108,0,4156.922852,4183.589844,4181.025391,4221.538574,4334.358887,450,8191,8320,0,0,0,2071,191.7948608,0,0,0,0,0
109,0,3727.692139,3694.871826,3695.897461,3751.281982,3951.281982,450,8189,8307,0,0,0,2071,199.4871674,0,0,0,0,0
110,0,3657.435791,3571.794678,3590.769043,3563.076904,3757.435791,450,8186,8299,0,0,0,2071,207.6923065,0,0,0,0,0
111,0,4139.487305,4084.615234,4029.743408,3962.563965,3945.640869,0,8184,8277,0,0,0,2071,215.384613,0,0,0,0,0
112,0,4738.461426,4633.333008,4569.743652,4585.12793,4557.435547,450,8180,8292,0,0,0,2071,223.5897369,0,0,0,0,0
113,0,4738.461426,4650.769043,4745.641113,4765.641113,4789.230469,450,8182,8280,0,0,0,2071,231.2820435,0,0,0,0,0
114,0,4739.487305,4769.743652,4920.512695,4840.512695,4732.307617,450,8178,8270,0,0,0,2071,239.4871674,0,0,0,0,0
115,0,4673.333008,4686.153809,4754.871582,4797.435547,4669.743652,0,8183,8264,0,0,0,2071,247.6923065,0,0,0,0,0
116,0,4398.461426,4324.102539,4349.230469,4522.563965,4576.410156,450,8179,8252,0,0,0,2071,255.384613,0,0,0,0,0
117,0,4225.12793,4154.871582,4151.794922,4182.563965,4318.974121,450,8181,8256,0,0,0,2071,263.5897522,0,0,0,0,0
118,0,4167.179199,4140,4167.179199,4107.179199,4216.922852,450,8186,8252,0,0,0,2071,271.2820435,0,0,0,0,0
119,0,4066.153809,3986.153809,3964.615234,4018.461426,4221.025391,0,8191,8238,0,0,0,2071,279.4871826,0,0,0,0,0
120,0,4075.384521,3928.717773,3821.025635,3837.94873,4115.384277,450,8198,8236,0,0,0,2071,287.1794739,0,0,0,0,0
121,0,4063.076904,3934.871582,4036.410156,3971.794678,3999.487061,450,8197,8226,0,0,0,2071,295.384613,0,0,0,0,0
122,0,4008.205078,3868.205078,4123.589844,4144.615234,4036.923096,450,8205,8245,0,0,0,2071,303.0769043,0,0,0,0,0
123,0,4229.743652,4052.307617,4037.94873,4077.435791,4282.563965,0,8197,8248,0,0,0,2071,311.2820435,0,0,0,0,0
124,0,4365.12793,4311.281738,4164.102539,3995.384521,4324.102539,450,8204,8227,0,0,0,2071,319.4871826,0,0,0,0,0
125,0,4271.794922,4335.897461,4415.897461,4252.307617,4265.12793,450,8204,8240,0,0,0,2071,327.1794739,0,0,0,0,0
126,0,4216.922852,4110.769043,4229.230469,4332.307617,4279.487305,450,8207,8233,0,0,0,2071,335.384613,0,0,0,0,0
127,0,4466.153809,4220,4160.512695,4265.641113,4361.538574,0,8207,8250,0,0,0,2071,343.0769043,0,0,0,0,0
128,0,4457.435547,4408.205078,4351.794922,4287.692383,4141.025391,500,8205,8269,0,0,0,2071,351.2820435,0,0,0,0,0
0,0,4236.410156,4318.974121,4362.563965,4365.641113,4123.589844,500,8207,8253,0,0,0,2071,358.9743652,0,0,0,0,0
1,0,4187.692383,4106.153809,4083.076904,4123.589844,4305.641113,500,8208,8269,0,0,0,2071,367.1794739,0,0,0,0,0
2,0,4444.615234,4337.436035,4187.179199,4119.487305,4340,14,8208,8271,0,0,0,2071,374.8717957,0,0,0,0,0
3,0,4362.563965,4407.179199,4337.436035,4314.871582,4237.94873,500,8209,8288,0,0,0,2071,383.0769043,0,0,0,0,0
4,0,3963.5896,3943.5896,3993.333252,4049.743408,4038.974365,20,8204,8289,0,0,0,2071,390.7692261,0,0,0,0,0
5,0,4010.769043,3924.102539,3924.102539,3887.179443,3856.923096,500,8212,8271,0,0,0,2071,398.9743347,0,0,0,0,0
6,0,4596.922852,4603.589844,4567.692383,4523.07666,4315.897461,147,8204,8273,0,0,0,2071,406.6666565,0,0,1,0,0
7,0,4412.307617,4379.487305,4491.281738,4609.743652,4485.12793,500,8200,8279,0,0,0,2071,414.8717957,0,0,1,0,0
8,0,3756.410156,3649.743408,3826.666504,3933.845947,3947.692139,500,8197,8265,0,0,0,2071,423.0769043,0,0,1,0,0
9,0,3800,3848.717773,3882.05127,3784.615234,3757.94873,263,8189,8277,0,0,0,2071,430.7692261,0,0,1,2,0
10,0,4637.435547,4635.384277,4590.769043,4550.256348,4609.230469,500,8191,8264,0,0,0,2071,438.4615173,0,0,1,2,0
11,0,4810.256348,4525.641113,4529.743652,4577.94873,4894.871582,226,8194,8272,0,0,0,2071,446.1538391,0,0,1,2,2
12,0,4450.256348,4308.717773,4326.153809,4189.230469,4474.871582,500,8191,8274,0,0,0,2071,454.3589783,0,0,1,2,2
13,0,4330.256348,4535.897461,4521.025391,4297.436035,4265.641113,500,8196,8276,0,0,0,2071,462.0512695,0,0,1,2,2
14,0,4369.230469,4531.794922,4532.820313,4411.281738,4244.615234,450,8199,8292,0,0,0,2071,470.2564087,0,0,1,2,2
15,0,4069.230713,3996.923096,4034.871582,4015.384521,4016.923096,226,8197,8286,0,0,0,2071,477.9487,0,0,1,2,2
16,0,4101.025391,4055.897217,4140,4102.563965,4134.871582,0,8200,8313,0,0,0,2071,486.1538391,0,0,1,2,2
17,0,4581.025391,4602.563965,4688.205078,4638.974121,4539.487305,0,8196,8331,0,0,0,2071,493.8461304,0,0,1,2,2
18,0,4460,4369.743652,4464.102539,4498.974121,4531.794922,0,8201,8338,0,0,0,2071,501.5384521,0,0,1,2,2
19,0,4182.05127,4051.794678,4124.615234,4273.333008,4474.358887,0,8196,8344,0,0,0,2071,509.7435913,0,0,1,2,2
20,0,4379.487305,4311.281738,4264.615234,4282.563965,4464.615234,0,8190,8354,0,0,0,2071,517.4359131,0,0,1,2,2
21,0,4486.153809,4486.153809,4511.281738,4333.333008,4308.717773,0,8189,8369,0,0,0,2071,525.1281738,0,0,1,2,2
22,0,4168.205078,4129.230469,4267.179199,4264.102539,4147.179199,0,8181,8410,0,0,0,2071,532.8204956,0,0,1,2,2
23,0,4113.333008,3964.615234,3930.256348,4097.436035,4194.871582,0,8175,8425,0,0,0,2071,541.0256348,0,0,1,2,2
24,0,4367.179199,4240,4104.615234,4170.256348,4320,0,8174,8431,0,0,0,2071,549.2307739,0,0,1,2,2
25,0,4445.641113,4481.025391,4541.025391,4476.922852,4445.12793,0,8155,8444,0,0,0,2071,556.9230347,0,0,1,2,2
26,0,4404.102539,4411.281738,4677.94873,4480,4450.256348,0,8160,8436,0,0,0,2071,564.6153564,0,0,1,2,2
27,0,4813.333008,4606.153809,4528.205078,4612.307617,4625.641113,0,8165,8453,0,0,0,2071,572.3076782,0,0,1,2,2
28,0,4594.358887,4445.641113,4180,4402.563965,4345.12793,0,8166,8457,0,0,0,2071,580.5128174,0,0,1,2,2
29,0,4240,4285.12793,4753.846191,4144.102539,4169.743652,0,8170,8456,0,0,0,2071,588.2051392,0,0,1,2,2
30,0,5852.820313,5870.769043,4765.12793,5748.205078,5888.717773,0,8165,8429,0,0,0,2071,595.8973999,0,0,1,2,2
31,0,6600.512695,6577.435547,2625.640869,6774.871582,6770.769043,0,8169,8406,0,0,0,2071,604.1025391,0,0,1,2,2
32,0,4284.615234,4310.256348,1445.640991,4831.794922,4719.487305,0,8162,8418,0,0,0,2071,611.7948608,0,0,1,2,2
33,0,2518.461426,2501.53833,2298.974365,2977.94873,2990.769043,0,8185,8436,0,0,0,2071,620,0,0,1,2,2
34,0,3054.871826,2961.025635,2601.53833,3074.871826,3111.794678,0,8184,8441,0,0,0,2071,627.6923218,0,0,1,2,2
35,0,3668.717773,3666.153809,2878.974365,3658.974365,3411.794678,0,8201,8443,0,0,0,2071,635.8973999,0,0,1,2,2
36,0,3729.230713,3785.128174,3899.487061,3931.281982,3574.358887,0,8213,8413,0,0,0,2071,643.5897217,0,0,1,2,2
37,0,3743.076904,3628.717773,3767.692139,3717.94873,3830.769043,0,8231,8406,0,0,0,2071,651.2820435,0,0,1,2,2
38,0,4051.794678,3831.794678,3791.794678,3763.5896,4181.538574,0,8243,8414,0,0,0,2071,658.9743652,0,0,1,2,2
39,0,4465.12793,4405.12793,4432.307617,4304.615234,4400,0,8257,8403,0,0,0,2071,667.1794434,0,0,1,2,2
40,0,3908.205078,3983.076904,3733.845947,3784.102539,3847.692139,0,8263,8391,0,0,0,2071,674.8717651,0,0,1,2,2
41,0,3630.769043,3596.923096,3443.5896,3346.666504,3656.923096,0,8264,8369,0,0,0,2071,683.0769043,0,0,1,2,2
42,0,4612.820313,4447.692383,4348.717773,4287.692383,4470.256348,0,8268,8313,0,0,0,2071,690.7692261,0,0,1,2,2
43,0,4664.102539,4553.846191,4453.846191,4507.179199,4637.435547,0,8264,8282,0,0,0,2071,698.4615479,0,0,1,2,2
44,0,3806.666504,3805.640869,3822.05127,3830.256348,4109.743652,0,8270,8233,0,0,0,2071,706.666626,0,0,1,2,2
45,0,3928.205078,3946.153809,3963.5896,3951.794678,4023.5896,0,8255,8190,0,0,0,2071,714.3589478,0,0,1,2,2
46,0,4095.384521,4080,4060.512695,4057.94873,3925.128174,0,8240,8173,0,0,0,2071,722.0512695,0,0,1,2,2
47,0,3786.666504,3793.333252,3886.666504,3962.563965,3921.53833,0,8231,8201,0,0,0,2071,729.7435913,0,0,1,2,2
48,0,3738.974365,3765.128174,3902.05127,3990.769043,3858.974365,0,8219,8216,0,0,0,2071,737.9486694,0,0,1,2,2
49,0,4101.025391,4074.871582,4081.025635,4092.307617,3855.897461,0,8197,8222,0,0,0,2071,746.1538086,0,0,1,2,2
50,0,4040.512695,4044.615234,4013.333252,4007.179443,3890.769043,0,8182,8252,0,0,0,2071,753.8461304,0,0,1,2,2
51,0,3750.256348,3792.820313,3797.435791,3810.769043,3621.53833,0,8187,8259,0,0,0,2071,762.0512695,0,0,1,2,2
52,0,4033.333252,3929.230713,3933.333252,3907.179443,3873.845947,0,8127,8267,0,0,0,2071,769.7435913,0,0,1,2,2
53,0,4660.512695,4471.794922,4459.487305,4429.743652,4878.461426,0,8122,8286,0,0,0,2071,777.4358521,0,0,1,2,2
54,0,4595.384277,4558.461426,4552.820313,4555.384277,4849.230469,0,8120,8110,0,0,0,2071,785.1281738,0,0,1,2,2
55,0,3694.871826,3771.794678,3794.358887,3729.230713,3574.871826,0,8141,8070,0,0,0,2071,792.8204956,0,0,1,2,2
56,0,3665.640869,3650.256348,3803.5896,3647.179443,3721.025635,0,8161,8064,0,0,0,2071,801.0256348,0,0,1,2,2
57,0,4395.384277,4359.487305,4605.12793,4563.07666,4826.153809,0,8152,8190,0,0,0,2071,808.7179565,0,0,1,2,2
58,0,4329.230469,4424.102539,4598.974121,4652.307617,4459.487305,0,8149,8270,0,0,0,2071,816.9230347,0,0,1,2,2
59,0,4115.897461,4117.94873,4166.666504,4161.538574,3957.435791,0,8145,8357,0,0,0,2071,825.1281738,0,0,1,2,2
60,0,4247.179199,4066.153809,4114.358887,4043.5896,4265.641113,0,8151,8362,0,0,0,2071,832.8204956,0,0,1,2,2
61,0,4331.281738,4133.333008,4293.333008,4331.794922,4509.230469,0,8156,8308,0,0,0,2071,840.5128174,0,0,1,2,2
62,0,4161.538574,4015.384521,4175.897461,4171.281738,4243.07666,0,8164,8265,0,0,0,2071,848.2050781,0,0,1,2,2
63,0,4294.358887,4184.102539,4337.94873,4113.333008,4323.07666,0,8164,8251,0,0,0,2071,855.8973999,0,0,1,2,2
64,0,4166.153809,4086.666504,4286.153809,4116.410156,4395.384277,500,8185,8247,0,0,0,2071,864.1025391,0,0,1,2,2
65,0,4124.102539,4109.743652,4198.461426,4225.641113,4353.333008,500,8190,8252,0,0,0,2071,871.7948608,0,0,1,2,2
66,0,4327.179199,4406.666504,4347.179199,4372.820313,4276.410156,16179,8197,8286,0,0,0,2071,880,3,0,1,2,2
67,0,4366.666504,4408.717773,4433.333008,4413.846191,4310.769043,500,8203,8282,0,0,0,2071,887.6922607,3,0,1,2,2
68,0,4358.974121,4174.871582,4300,4356.922852,4468.205078,16238,8205,8285,0,0,0,2071,895.8973999,3,3,1,2,2
69,0,4527.179199,4318.974121,4340.512695,4362.563965,4550.769043,500,8220,8267,0,0,0,2071,903.5897217,3,3,1,2,2
70,0,4476.922852,4515.897461,4587.179199,4602.05127,4673.846191,16258,8231,8254,0,0,0,2071,911.2820435,3,3,3,2,2
71,0,4298.974121,4454.871582,4636.922852,4636.922852,4673.333008,500,8219,8257,0,0,0,2071,919.4871826,3,3,3,2,2
72,0,4614.871582,4720,4761.025391,4565.641113,4527.179199,500,8219,8256,0,0,0,2071,927.1794434,3,3,3,2,2
73,0,4658.974121,4702.563965,4668.717773,4475.897461,4401.538574,244,8215,8277,0,0,0,2071,934.8717651,3,3,3,2,2
74,0,4290.256348,4376.922852,4610.256348,4617.94873,4472.307617,500,8215,8277,0,0,0,2071,943.0769043,3,3,3,2,2
75,0,4640,4787.179199,5173.333008,5161.025391,4813.846191,16263,8221,8266,0,0,0,2071,950.7692261,3,3,3,2,3
76,0,5348.717773,5347.692383,5408.205078,5289.230469,5103.589844,500,8210,8267,0,0,0,2071,958.9743652,3,3,3,2,3
77,0,5435.384277,5146.666504,4940.512695,4937.94873,5173.846191,500,8206,8263,0,0,0,2071,966.666626,3,3,3,2,3
78,0,5109.743652,4830.769043,4850.256348,4844.615234,5074.358887,450,8212,8260,0,0,0,2071,974.3589478,3,3,3,2,3
79,0,4777.94873,4850.769043,5076.922852,4940,4810.256348,16263,8201,8278,0,0,0,2071,982.0512695,3,3,3,2,3
80,0,4603.589844,4831.794922,4888.717773,4716.410156,4509.230469,450,8198,8273,0,0,0,2071,990.2564087,3,3,3,2,3
81,0,4630.256348,4715.897461,4702.05127,4489.743652,4471.281738,450,8200,8271,0,0,0,2071,997.9486694,3,3,3,2,3
82,0,4504.102539,4562.563965,4830.769043,4625.12793,4525.12793,450,8200,8274,0,0,0,2072,6.153845787,3,3,3,2,3
83,0,4283.589844,4419.487305,4848.717773,4723.589844,4464.615234,16263,8199,8272,0,0,0,2072,13.84615326,3,3,3,2,3
84,0,4337.94873,4407.692383,4780.512695,4680,4570.769043,450,8201,8289,0,0,0,2072,22.05128098,3,3,3,2,3
85,0,4428.717773,4389.230469,4759.487305,4736.410156,4650.769043,450,8199,8269,0,0,0,2072,29.7435894,3,3,3,2,3
86,0,4529.743652,4559.487305,4856.410156,4921.538574,4619.487305,450,8200,8283,0,0,0,2072,37.94871521,3,3,3,2,3
87,0,4645.641113,4790.769043,4859.487305,4752.307617,4607.692383,16263,8194,8281,0,0,0,2072,45.64102554,3,3,3,2,3
88,0,4615.384277,4641.025391,4556.922852,4305.12793,4519.487305,450,8202,8290,0,0,0,2072,53.33333206,3,3,3,2,3
89,0,4656.410156,4391.794922,4433.333008,4344.615234,4458.974121,450,8200,8310,0,0,0,2072,61.02563858,3,3,3,2,3
90,0,4673.846191,4341.025391,4530.256348,4535.897461,4493.846191,450,8200,8313,0,0,0,2072,69.2307663,3,3,3,2,3
91,0,4409.230469,4263.589844,4528.205078,4528.205078,4563.589844,16263,8183,8292,0,0,0,2072,76.92307281,3,3,3,2,3
92,0,4190.769043,4167.179199,4508.205078,4587.179199,4486.153809,450,8193,8297,0,0,0,2072,85.12820435,3,3,3,2,3
93,0,4371.794922,4350.769043,4563.07666,4545.12793,4426.666504,450,8186,8291,0,0,0,2072,92.82051086,3,3,3,2,3
94,0,4550.769043,4577.435547,4513.333008,4260,4411.794922,450,8183,8302,0,0,0,2072,100.5128174,3,3,3,2,3
95,0,4485.12793,4433.333008,4324.102539,4207.179199,4368.205078,16263,8183,8286,0,0,0,2072,108.7179489,3,3,3,2,3
96,0,4433.846191,4226.666504,4378.461426,4453.846191,4347.179199,450,8184,8272,0,0,0,2072,116.4102554,3,3,3,2,3
97,0,4437.94873,4383.07666,4678.461426,4494.871582,4400,450,8179,8284,0,0,0,2072,124.102562,3,3,3,2,3
98,0,4422.05127,4602.563965,4708.205078,4274.358887,4421.538574,450,8179,8281,0,0,0,2072,131.7948761,3,3,3,2,3
99,0,4456.922852,4547.692383,4515.897461,4271.794922,4380.512695,16263,8175,8281,0,0,0,2072,140,3,3,3,2,3
100,0,4441.025391,4338.461426,4476.410156,4483.07666,4293.846191,450,8179,8283,0,0,0,2072,147.6923065,3,3,3,2,3
101,0,4397.94873,4302.563965,4488.717773,4547.179199,4363.07666,450,8176,8267,0,0,0,2072,155.8974304,3,3,3,2,3
102,0,4438.974121,4395.897461,4374.358887,4378.461426,4527.692383,450,8177,8277,0,0,0,2072,164.1025543,3,3,3,2,3
103,0,4518.974121,4527.692383,4453.846191,4361.025391,4488.205078,16263,8180,8269,0,0,0,2072,171.7948608,3,3,3,2,3
104,0,4462.563965,4552.820313,4557.435547,4526.666504,4342.563965,450,8182,8271,0,0,0,2072,179.4871826,3,3,3,2,3
105,0,4325.641113,4388.205078,4478.974121,4511.794922,4434.871582,450,8188,8278,0,0,0,2072,187.1794891,3,3,3,2,3
106,0,4390.769043,4364.102539,4523.589844,4377.94873,4598.461426,450,8188,8262,0,0,0,2072,194.8717957,3,3,3,2,3
107,0,4501.538574,4489.743652,4562.05127,4341.025391,4494.358887,16263,8195,8267,0,0,0,2072,203.0769196,3,3,3,2,3
108,0,4441.538574,4463.589844,4357.435547,4347.179199,4385.12793,450,8194,8261,0,0,0,2072,210.7692261,3,3,3,2,3
109,0,4344.102539,4193.333008,4243.07666,4272.307617,4381.025391,450,8198,8268,0,0,0,2072,218.97435,3,3,3,2,3
110,0,4267.179199,4034.358887,4424.102539,4338.461426,4317.436035,450,8203,8276,0,0,0,2072,226.6666565,3,3,3,2,3
111,0,4082.05127,4147.692383,4522.05127,4456.410156,4162.563965,16263,8203,8259,0,0,0,2072,234.358963,3,3,3,2,3
112,0,4078.974365,4317.94873,4521.538574,4422.563965,4124.615234,450,8203,8266,0,0,0,2072,242.0512695,3,3,3,2,3
113,0,4111.281738,4171.281738,4425.641113,4302.05127,4287.692383,450,8200,8272,0,0,0,2072,250.2564087,3,3,3,2,3
114,0,4039.487061,3991.794678,4260.512695,4325.12793,4393.846191,450,8192,8279,0,0,0,2072,257.9487,3,3,3,2,3
115,0,4152.820313,4174.871582,4203.07666,4378.461426,4311.794922,16263,8193,8289,0,0,0,2072,266.1538391,3,3,3,2,3
116,0,4287.179199,4264.102539,4222.05127,4298.461426,4328.205078,450,8190,8275,0,0,0,2072,273.8461609,3,3,3,2,3
117,0,4218.974121,4120.512695,4226.666504,4236.410156,4421.538574,450,8185,8291,0,0,0,2072,282.0512695,3,3,3,2,3
118,0,4208.205078,4179.487305,4307.692383,4322.563965,4333.333008,450,8179,8298,0,0,0,2072,289.7435913,3,3,3,2,3
119,0,4325.12793,4341.025391,4330.769043,4329.743652,4217.436035,16263,8178,8295,0,0,0,2072,297.9487,3,3,3,2,3
120,0,4312.307617,4309.743652,4272.307617,4292.820313,4288.717773,450,8172,8302,0,0,0,2072,305.6410217,3,3,3,2,3
121,0,4219.487305,4233.846191,4411.281738,4430.256348,4287.692383,450,8175,8283,0,0,0,2072,313.333313,3,3,3,2,3
122,0,4430.769043,4331.281738,4464.102539,4401.025391,4289.743652,450,8184,8285,0,0,0,2072,321.0256348,3,3,3,2,3
123,0,4716.922852,4490.769043,4335.384277,4251.281738,4384.615234,16263,8182,8299,0,0,0,2072,329.2307739,3,3,3,2,3
124,0,4591.281738,4513.846191,4380.512695,4380,4488.717773,450,8180,8285,0,0,0,2072,336.9230652,3,3,3,2,3
125,0,4347.179199,4377.94873,4389.743652,4396.922852,4646.666504,450,8182,8289,0,0,0,2072,345.1282043,3,3,3,2,3
126,0,4347.179199,4265.12793,4326.666504,4296.410156,4571.794922,450,8186,8263,0,0,0,2072,352.8204956,3,3,3,2,3
127,0,4460,4311.281738,4399.487305,4417.435547,4340.512695,16263,8187,8269,0,0,0,2072,360.5128174,3,3,3,2,3
128,0,4390.256348,4293.333008,4310.769043,4359.487305,4234.358887,500,8191,8280,0,0,0,2072,368.717926,3,3,3,2,3
0,0,4274.358887,4197.94873,4097.94873,4073.845947,4204.615234,500,8203,8279,0,0,0,2072,376.4102478,3,3,3,2,3
1,0,4250.769043,4110.769043,4038.461426,4032.820313,4299.487305,500,8200,8288,0,0,0,2072,384.1025696,3,3,3,2,3
2,0,4305.12793,4129.743652,4063.5896,4115.897461,4431.794922,217,8205,8282,0,0,0,2072,391.7948608,2,3,3,2,3
3,0,4260.512695,4265.641113,4216.410156,4054.358887,4240,500,8218,8288,0,0,0,2072,400,2,3,3,2,3
4,0,4150.256348,4357.435547,4496.410156,4119.487305,3970.256348,64,8225,8306,0,0,0,2072,408.2051086,2,1,3,2,3
5,0,4200,4320,4480,4226.153809,4116.922852,500,8221,8310,0,0,0,2072,415.8974304,2,1,3,2,3
6,0,4224.102539,4187.179199,4290.769043,4230.256348,4407.179199,292,8218,8312,0,0,0,2072,423.5897217,2,1,2,2,3
7,0,4171.281738,4064.102539,4241.025391,4233.333008,4430.256348,500,8217,8311,0,0,0,2072,431.2820435,2,1,2,2,3
8,0,4249.230469,4118.974121,4330.256348,4294.358887,4299.487305,500,8217,8306,0,0,0,2072,439.4871826,2,1,2,2,3
9,0,4256.922852,4137.436035,4421.538574,4401.538574,4248.205078,16061,8207,8324,0,0,0,2072,447.1794739,2,1,2,3,3
10,0,4146.153809,4043.5896,4397.435547,4373.333008,4334.358887,500,8209,8310,0,0,0,2072,454.8717957,2,1,2,3,3
11,0,4123.589844,4166.666504,4371.794922,4224.615234,4251.281738,16322,8202,8308,0,0,0,2072,463.0769043,2,1,2,3,3
12,0,4220.512695,4372.307617,4457.435547,4278.974121,4116.410156,500,8193,8318,0,0,0,2072,470.7692261,2,1,2,3,3
13,0,4221.538574,4287.179199,4453.846191,4453.333008,4180.512695,500,8194,8312,0,0,0,2072,478.9743347,2,1,2,3,3
14,0,4205.641113,4198.974121,4321.025391,4411.794922,4202.563965,450,8187,8327,0,0,0,2072,487.1794739,2,1,2,3,3
15,0,4236.410156,4221.538574,4275.384277,4269.743652,4137.436035,16322,8178,8334,0,0,0,2072,494.8717957,2,1,2,3,3
16,0,4236.410156,4137.94873,4213.333008,4156.922852,4250.256348,0,8183,8327,0,0,0,2072,502.5640869,2,1,2,3,3
17,0,4206.666504,4129.230469,4085.640869,4021.53833,4427.179199,0,8178,8336,0,0,0,2072,510.2564087,2,1,2,3,3
18,0,4090.769043,4127.692383,4181.025391,4139.487305,4261.538574,0,8181,8325,0,0,0,2072,517.9487305,2,1,2,3,3
19,0,4038.461426,4045.128174,4347.179199,4398.461426,4049.230713,0,8177,8310,0,0,0,2072,526.1538086,2,1,2,3,3
20,0,4075.384521,4051.794678,4210.769043,4285.12793,4164.102539,0,8174,8331,0,0,0,2072,533.8461304,2,1,2,3,3
21,0,4081.53833,4104.615234,4031.281982,4076.410156,4367.692383,0,8170,8319,0,0,0,2072,542.0512695,2,1,2,3,3
22,0,4057.435791,4073.333252,4055.384521,4074.871582,4455.384277,0,8168,8319,0,0,0,2072,549.7435913,2,1,2,3,3
23,0,4103.07666,4037.94873,4077.435791,4085.128174,4440,0,8174,8307,0,0,0,2072,557.4359131,2,1,2,3,3
24,0,4248.205078,4168.717773,4140,4132.820313,4276.922852,0,8178,8294,0,0,0,2072,565.6409912,2,1,2,3,3
25,0,4377.435547,4349.743652,4311.281738,4254.871582,4206.153809,0,8174,8314,0,0,0,2072,573.333313,2,1,2,3,3
26,0,4362.05127,4261.538574,4226.153809,4226.153809,4382.05127,0,8184,8294,0,0,0,2072,581.0256348,2,1,2,3,3
27,0,4374.358887,4206.666504,4184.615234,4167.179199,4332.820313,0,8186,8293,0,0,0,2072,588.7179565,2,1,2,3,3
28,0,4366.153809,4306.666504,4421.538574,4269.743652,4185.12793,0,8183,8282,0,0,0,2072,596.9230347,2,1,2,3,3
29,0,4163.589844,4215.897461,4461.025391,4348.717773,4437.435547,0,8188,8279,0,0,0,2072,605.1281738,2,1,2,3,3
30,0,4156.922852,4130.769043,4180.512695,4233.846191,4541.025391,0,8187,8297,0,0,0,2072,612.8204956,2,1,2,3,3
31,0,4498.974121,4340.512695,4090.769043,4107.692383,4211.281738,0,8198,8288,0,0,0,2072,621.0256348,2,1,2,3,3
32,0,4574.871582,4402.05127,4346.153809,4193.846191,4095.384521,0,8199,8293,0,0,0,2072,628.7179565,2,1,2,3,3
33,0,4257.94873,4200,4460.512695,4298.461426,4373.846191,0,8203,8288,0,0,0,2072,636.4102173,2,1,2,3,3
34,0,4176.922852,4294.871582,4396.922852,4296.410156,4471.281738,0,8201,8294,0,0,0,2072,644.1025391,2,1,2,3,3
35,0,4233.333008,4429.743652,4408.717773,4334.358887,4306.153809,0,8205,8305,0,0,0,2072,651.7948608,2,1,2,3,3
36,0,4183.589844,4247.179199,4459.487305,4441.538574,4429.743652,0,8208,8307,0,0,0,2072,660,2,1,2,3,3
37,0,4255.897461,4135.897461,4393.333008,4459.487305,4547.179199,0,8208,8298,0,0,0,2072,668.2051392,2,1,2,3,3
38,0,4417.94873,4343.07666,4497.435547,4521.025391,4290.769043,0,8210,8297,0,0,0,2072,675.8973999,2,1,2,3,3
39,0,4386.153809,4365.12793,4573.846191,4493.846191,4159.487305,0,8210,8301,0,0,0,2072,684.1025391,2,1,2,3,3
40,0,4355.897461,4195.384277,4275.897461,4228.717773,4526.153809,0,8203,8320,0,0,0,2072,691.7948608,2,1,2,3,3
41,0,4357.435547,4204.615234,4157.436035,4160,4591.281738,0,8206,8317,0,0,0,2072,699.4871826,2,1,2,3,3
42,0,4207.179199,4209.743652,4427.692383,4481.538574,4140.512695,0,8205,8310,0,0,0,2072,707.1794434,2,1,2,3,3
43,0,4102.563965,4132.307617,4493.846191,4637.435547,4167.692383,0,8202,8310,0,0,0,2072,714.8717651,2,1,2,3,3
44,0,4228.205078,4217.94873,4306.153809,4401.025391,4611.281738,0,8199,8302,0,0,0,2072,723.0769043,2,1,2,3,3
45,0,4323.07666,4317.94873,4266.666504,4268.205078,4635.897461,0,8193,8321,0,0,0,2072,730.7692261,2,1,2,3,3
46,0,4317.436035,4284.102539,4297.94873,4290.769043,4496.410156,0,8191,8321,0,0,0,2072,738.9743652,2,1,2,3,3
47,0,4313.846191,4272.820313,4275.384277,4263.07666,4590.256348,0,8198,8305,0,0,0,2072,747.1794434,2,1,2,3,3
48,0,4273.846191,4303.07666,4314.871582,4387.179199,4476.410156,0,8184,8315,0,0,0,2072,754.8717651,2,1,2,3,3
49,0,4275.897461,4260,4263.07666,4476.410156,4256.410156,0,8186,8304,0,0,0,2072,762.5640869,2,1,2,3,3
50,0,4382.05127,4276.410156,4184.102539,4276.410156,4343.07666,0,8184,8315,0,0,0,2072,770.2564087,2,1,2,3,3
51,0,4438.974121,4351.794922,4250.769043,4171.281738,4452.307617,0,8178,8315,0,0,0,2072,778.4615479,2,1,2,3,3
52,0,4376.410156,4291.794922,4267.692383,4233.846191,4380,0,8180,8298,0,0,0,2072,786.1538086,2,1,2,3,3
53,0,4407.179199,4290.769043,4267.179199,4250.256348,4293.846191,0,8182,8301,0,0,0,2072,793.8461304,2,1,2,3,3
54,0,4425.641113,4355.384277,4307.179199,4249.743652,4115.897461,0,8185,8293,0,0,0,2072,802.0512695,2,1,2,3,3
55,0,4312.820313,4363.589844,4336.410156,4305.641113,4004.102539,0,8188,8300,0,0,0,2072,809.7435913,2,1,2,3,3
56,0,4211.281738,4227.692383,4278.974121,4325.641113,4143.589844,0,8180,8308,0,0,0,2072,817.9486694,2,1,2,3,3
57,0,4107.692383,3923.5896,4043.5896,4191.281738,4322.05127,0,8181,8289,0,0,0,2072,825.6409912,2,1,2,3,3
58,0,4024.102539,3844.102539,3891.281982,3971.794678,4157.436035,0,8186,8295,0,0,0,2072,833.333313,2,1,2,3,3
59,0,3985.640869,4020.512695,3986.153809,3893.333252,3818.461426,0,8187,8289,0,0,0,2072,841.0256348,2,1,2,3,3
60,0,3858.974365,3955.384521,3984.102539,3937.94873,3798.461426,0,8191,8282,0,0,0,2072,849.2307739,2,1,2,3,3
61,0,3888.205078,3862.563965,3922.05127,3900.512695,4042.05127,0,8202,8289,0,0,0,2072,856.9230347,2,1,2,3,3
62,0,4184.102539,4151.281738,4113.333008,3824.102539,4170.256348,0,8198,8271,0,0,0,2072,865.1281738,2,1,2,3,3
63,0,4377.94873,4434.871582,4368.205078,3863.5896,4185.641113,0,8193,8278,0,0,0,2072,872.8204956,2,1,2,3,3
64,0,4294.871582,4284.102539,4428.205078,4075.384521,4176.410156,500,8196,8284,0,0,0,2072,881.0256348,2,1,2,3,3
65,0,4134.871582,3980,4398.461426,4357.435547,4276.410156,500,8199,8280,0,0,0,2072,888.7179565,2,1,2,3,3
66,0,4141.025391,3991.794678,4248.205078,4276.922852,4455.384277,16118,8203,8289,0,0,0,2072,896.4102173,3,1,2,3,3
67,0,4347.692383,4327.692383,4216.922852,4125.641113,4414.871582,500,8203,8276,0,0,0,2072,904.1025391,3,1,2,3,3
68,0,4351.794922,4358.974121,4302.05127,4212.820313,4227.692383,326,8206,8284,0,0,0,2072,912.3076782,3,2,2,3,3
69,0,4220,4181.538574,4236.410156,4190.256348,4233.333008,500,8209,8295,0,0,0,2072,920,3,2,2,3,3
70,0,4297.436035,4277.436035,4207.179199,4179.487305,4243.589844,122,8208,8289,0,0,0,2072,928.2050781,3,2,1,3,3
71,0,4256.922852,4251.281738,4277.94873,4273.333008,4166.666504,500,8206,8299,0,0,0,2072,935.8973999,3,2,1,3,3
72,0,4044.615234,4041.025635,4238.461426,4200.512695,4177.436035,500,8209,8282,0,0,0,2072,944.1025391,3,2,1,3,3
73,0,4035.897217,4034.871582,4117.436035,4051.794678,4124.615234,275,8214,8288,0,0,0,2072,951.7948608,3,2,1,2,3
74,0,4113.333008,4098.974121,4088.717773,4017.435791,4013.333252,500,8216,8302,0,0,0,2072,959.4871826,3,2,1,2,3
75,0,4051.281982,4078.974365,4131.281738,3990.769043,4159.487305,215,8206,8286,0,0,0,2072,967.1794434,3,2,1,2,2
76,0,4063.5896,4050.256348,4066.153809,4028.717773,4430.256348,500,8213,8296,0,0,0,2072,974.8717651,3,2,1,2,2
77,0,4111.281738,4055.384521,3997.94873,4094.358887,4377.435547,500,8209,8302,0,0,0,2072,983.0769043,3,2,1,2,2
78,0,4125.12793,4229.230469,4274.871582,4079.487061,4114.358887,450,8214,8282,0,0,0,2072,990.7692261,3,2,1,2,2
79,0,4162.05127,4298.461426,4426.666504,4112.307617,4075.384521,215,8205,8293,0,0,0,2072,998.9743042,3,2,1,2,2
80,0,4248.717773,4163.589844,4158.974121,4194.871582,4369.743652,450,8204,8278,0,0,0,2073,6.666666508,3,2,1,2,2
81,0,4320.512695,4203.07666,4126.153809,4223.589844,4491.794922,450,8203,8285,0,0,0,2073,14.8717947,3,2,1,2,2
82,0,4287.179199,4342.05127,4347.179199,4266.153809,4429.230469,450,8199,8291,0,0,0,2073,22.56410217,3,2,1,2,2
83,0,4270.769043,4287.179199,4283.589844,4177.94873,4514.871582,215,8204,8271,0,0,0,2073,30.25640869,3,2,1,2,2
84,0,4318.461426,4255.897461,4335.384277,4209.230469,4493.846191,450,8194,8292,0,0,0,2073,38.46153641,3,2,1,2,2
85,0,4249.230469,4351.794922,4646.666504,4496.922852,4210.769043,450,8193,8290,0,0,0,2073,46.15384674,3,2,1,2,2
86,0,4131.794922,4288.205078,4552.307617,4619.487305,4287.179199,450,8193,8289,0,0,0,2073,53.84615326,3,2,1,2,2
87,0,4157.94873,4165.12793,4226.666504,4509.230469,4575.384277,215,8200,8292,0,0,0,2073,62.05128098,3,2,1,2,2
88,0,4282.563965,4296.410156,4309.230469,4446.153809,4347.692383,450,8200,8280,0,0,0,2073,69.74359131,3,2,1,2,2
89,0,4298.461426,4479.487305,4634.871582,4458.974121,4062.05127,450,8251,8275,0,0,0,2073,77.94871521,3,2,1,2,2
90,0,4318.461426,4371.794922,4595.897461,4307.692383,4258.974121,450,8194,8287,0,0,0,2073,85.64102173,3,2,1,2,2
91,0,4396.410156,4161.025391,4215.897461,4100,4510.769043,215,8189,8290,0,0,0,2073,93.33332825,3,2,1,2,2
92,0,4270.256348,4086.153809,4021.53833,4099.487305,4478.974121,450,8191,8293,0,0,0,2073,101.0256348,3,2,1,2,2
93,0,4040,4067.692139,4107.179199,4222.05127,4448.717773,450,8194,8278,0,0,0,2073,109.2307663,3,2,1,2,2
94,0,4040,4067.179443,4123.589844,4160,4500,450,8196,8281,0,0,0,2073,116.9230728,3,2,1,2,2
95,0,4281.025391,4108.205078,4028.205078,4020,4503.589844,215,8193,8295,0,0,0,2073,125.1282043,3,2,1,2,2
96,0,4402.563965,4152.307617,4025.640869,4061.53833,4446.153809,450,8197,8285,0,0,0,2073,132.8205109,3,2,1,2,2
97,0,4346.666504,4229.743652,4241.025391,4136.922852,4287.179199,450,8192,8290,0,0,0,2073,141.0256348,3,2,1,2,2
98,0,4235.897461,4211.794922,4453.846191,4247.179199,4180.512695,450,8198,8287,0,0,0,2073,148.7179413,3,2,1,2,2
99,0,4226.153809,4211.281738,4398.461426,4391.281738,4325.12793,215,8209,8279,0,0,0,2073,156.4102478,3,2,1,2,2
100,0,4342.05127,4380,4354.358887,4320,4421.025391,450,8206,8290,0,0,0,2073,164.1025543,3,2,1,2,2
101,0,4303.07666,4382.563965,4471.794922,4267.179199,4376.922852,450,8204,8280,0,0,0,2073,171.7948608,3,2,1,2,2
102,0,4221.025391,4158.974121,4360,4290.256348,4479.487305,450,8204,8285,0,0,0,2073,180,3,2,1,2,2
103,0,4371.281738,4227.692383,4209.743652,4272.307617,4510.256348,215,8204,8272,0,0,0,2073,188.2051239,3,2,1,2,2
104,0,4442.563965,4411.281738,4304.102539,4388.205078,4166.153809,450,8202,8286,0,0,0,2073,195.8974304,3,2,1,2,2
105,0,4198.461426,4233.333008,4319.487305,4556.410156,4137.436035,450,8204,8291,0,0,0,2073,204.1025543,3,2,1,2,2
106,0,4077.435791,4090.256348,4215.384277,4476.922852,4481.538574,450,8193,8292,0,0,0,2073,211.7948608,3,2,1,2,2
107,0,4326.666504,4318.461426,4336.922852,4308.717773,4379.487305,215,8194,8294,0,0,0,2073,219.4871674,3,2,1,2,2
108,0,4493.846191,4487.692383,4459.487305,4253.333008,4106.666504,450,8200,8282,0,0,0,2073,227.6923065,3,2,1,2,2
109,0,4289.743652,4351.281738,4358.461426,4230.769043,4156.410156,450,8194,8283,0,0,0,2073,235.384613,3,2,1,2,2
110,0,4011.794678,4192.307617,4389.743652,4406.153809,4189.743652,450,8193,8290,0,0,0,2073,243.0769196,3,2,1,2,2
111,0,4060.512695,4142.05127,4401.538574,4528.717773,4094.358887,215,8189,8287,0,0,0,2073,250.7692261,3,2,1,2,2
112,0,4307.692383,4118.974121,4123.589844,4244.615234,4252.820313,450,8190,8288,0,0,0,2073,258.9743652,3,2,1,2,2
113,0,4331.794922,4109.743652,3972.307617,4008.205078,4504.102539,450,8191,8280,0,0,0,2073,267.1794739,3,2,1,2,2
114,0,4325.641113,4245.12793,4244.615234,4214.358887,4483.07666,450,8188,8272,0,0,0,2073,274.8717957,3,2,1,2,2
115,0,4402.563965,4415.897461,4462.05127,4430.256348,4292.307617,215,8184,8285,0,0,0,2073,282.5640869,3,2,1,2,2
116,0,4362.05127,4430.769043,4409.230469,4411.794922,4283.589844,450,8184,8286,0,0,0,2073,290.2564087,3,2,1,2,2
117,0,4286.153809,4343.07666,4327.179199,4356.922852,4424.615234,450,8187,8277,0,0,0,2073,298.4615173,3,2,1,2,2
118,0,4429.230469,4415.897461,4405.641113,4343.07666,4318.974121,450,8189,8283,0,0,0,2073,306.1538391,3,2,1,2,2
119,0,4531.281738,4542.563965,4557.435547,4380.512695,4046.153809,215,8186,8278,0,0,0,2073,313.8461609,3,2,1,2,2
120,0,4493.333008,4506.666504,4473.846191,4390.769043,4125.12793,450,8187,8291,0,0,0,2073,322.0512695,3,2,1,2,2
121,0,4487.692383,4354.358887,4182.05127,4207.179199,4448.717773,450,8187,8290,0,0,0,2073,329.7435913,3,2,1,2,2
122,0,4351.281738,4238.974121,4169.743652,4153.333008,4455.897461,450,8188,8284,0,0,0,2073,337.9487,3,2,1,2,2
123,0,4168.205078,4252.307617,4451.281738,4430.769043,4184.615234,215,8191,8294,0,0,0,2073,346.1538391,3,2,1,2,2
124,0,4126.666504,4260,4580,4668.205078,4101.538574,450,8196,8287,0,0,0,2073,353.8461304,3,2,1,2,2
125,0,4155.897461,4217.94873,4556.922852,4623.589844,4221.538574,450,8197,8293,0,0,0,2073,361.5384521,3,2,1,2,2
126,0,4303.589844,4331.281738,4581.025391,4376.410156,4162.05127,450,8190,8301,0,0,0,2073,369.2307739,3,2,1,2,2
127,0,4429.743652,4437.435547,4486.153809,4205.12793,4134.358887,215,8190,8288,0,0,0,2073,376.9230652,3,2,1,2,2
128,0,4331.794922,4326.666504,4276.922852,4177.436035,4369.230469,500,8188,8292,0,0,0,2073,385.1282043,3,2,1,2,2
0,0,4224.615234,4228.205078,4180,4114.358887,4524.102539,500,8191,8284,0,0,0,2073,392.8204956,3,2,1,2,2
1,0,4293.846191,4288.205078,4225.12793,4007.179443,4501.025391,500,8188,8289,0,0,0,2073,401.0256348,3,2,1,2,2
2,0,4322.563965,4324.615234,4286.153809,4083.076904,4481.025391,16316,8192,8310,0,0,0,2073,408.717926,3,2,1,2,2
3,0,4253.333008,4257.436035,4266.153809,4180.512695,4503.589844,500,8192,8295,0,0,0,2073,416.9230652,3,2,1,2,2
4,0,4260.512695,4251.794922,4271.281738,4105.12793,4509.230469,223,8198,8300,0,0,0,2073,424.615387,3,2,1,2,2
5,0,4383.07666,4379.487305,4346.153809,4114.871582,4449.230469,500,8196,8301,0,0,0,2073,432.3076782,3,2,1,2,2
6,0,4466.666504,4479.487305,4476.922852,4388.205078,4352.820313,16287,8194,8294,0,0,0,2073,440,3,2,3,2,2
7,0,4281.538574,4271.281738,4485.641113,4604.102539,4373.846191,500,8196,8303,0,0,0,2073,448.2051086,3,2,3,2,2
8,0,4218.974121,4212.820313,4433.846191,4480.512695,4374.358887,500,8204,8288,0,0,0,2073,455.8974304,3,2,3,2,2
9,0,4488.717773,4573.846191,4555.897461,4433.846191,4183.589844,16179,8198,8292,0,0,0,2073,464.1025391,3,2,3,3,2
10,0,4499.487305,4630.256348,4660,4706.666504,4290.256348,500,8196,8287,0,0,0,2073,471.7948608,3,2,3,3,2
11,0,3993.333252,4034.871582,4218.461426,4410.256348,4356.410156,16380,8200,8284,0,0,0,2073,480,3,2,3,3,3
12,0,4166.153809,4075.384521,4071.281982,4080.512695,4425.12793,500,8205,8296,0,0,0,2073,487.6922913,3,2,3,3,3
13,0,4671.281738,4625.641113,4476.410156,4432.820313,4585.641113,500,8204,8281,0,0,0,2073,495.384613,3,2,3,3,3
14,0,3436.410156,3530.256348,3479.487061,3590.769043,3553.333252,450,8197,8288,0,0,0,2073,503.0769043,3,2,3,3,3
15,0,2353.333252,2416.410156,2437.94873,2449.230713,2612.307617,16380,8204,8288,0,0,0,2073,510.7692261,3,2,3,3,3
16,0,3507.179443,3474.871826,3576.410156,3442.563965,3526.666504,0,8201,8286,0,0,0,2073,518.9743652,3,2,3,3,3
17,0,4492.820313,4493.333008,4657.94873,4664.102539,4474.358887,0,8203,8291,0,0,0,2073,527.1795044,3,2,3,3,3
18,0,4069.743408,4056.923096,4102.05127,4284.615234,4228.717773,0,8195,8292,0,0,0,2073,534.8717651,3,2,3,3,3
19,0,4169.230469,4109.743652,3989.230713,4088.717773,4234.358887,0,8193,8286,0,0,0,2073,542.5640869,3,2,3,3,3
20,0,4724.615234,4739.487305,4575.897461,4450.769043,4520.512695,0,8195,8293,0,0,0,2073,550.2564087,3,2,3,3,3
21,0,4624.102539,4645.641113,4548.205078,4369.230469,4349.743652,0,8195,8289,0,0,0,2073,558.4615479,3,2,3,3,3
22,0,4378.461426,4411.281738,4517.94873,4462.563965,4332.820313,0,8192,8300,0,0,0,2073,566.1538086,3,2,3,3,3
23,0,4194.358887,4245.641113,4473.333008,4497.94873,4537.435547,0,8181,8296,0,0,0,2073,573.8461304,3,2,3,3,3
24,0,4286.153809,4181.538574,4283.589844,4228.717773,4625.641113,0,8183,8290,0,0,0,2073,582.0512695,3,2,3,3,3
25,0,4571.794922,4420,4375.384277,4356.410156,4534.358887,0,8182,8298,0,0,0,2073,589.7435913,3,2,3,3,3
26,0,4417.435547,4416.922852,4387.179199,4386.666504,4339.487305,0,8178,8296,0,0,0,2073,597.9487305,3,2,3,3,3
27,0,4249.743652,4276.922852,4423.589844,4217.94873,4393.333008,0,8179,8297,0,0,0,2073,606.1538086,3,2,3,3,3
28,0,4295.384277,4308.717773,4549.743652,4220,4337.436035,0,8183,8310,0,0,0,2073,613.8461304,3,2,3,3,3
29,0,4430.256348,4520.512695,4558.974121,4373.333008,4223.07666,0,8185,8294,0,0,0,2073,621.5384521,3,2,3,3,3
30,0,4537.94873,4478.461426,4291.794922,4283.07666,4262.563965,0,8182,8296,0,0,0,2073,629.2307739,3,2,3,3,3
31,0,4539.487305,4397.435547,4315.384277,4236.922852,4301.538574,0,8181,8302,0,0,0,2073,636.9230347,3,2,3,3,3
32,0,4416.922852,4582.05127,4631.281738,4465.641113,4276.922852,0,8186,8305,0,0,0,2073,645.1281738,3,2,3,3,3
33,0,4331.281738,4645.12793,4622.563965,4595.897461,4255.384277,0,8196,8313,0,0,0,2073,652.8204956,3,2,3,3,3
34,0,4334.358887,4345.641113,4332.820313,4525.641113,4362.05127,0,8197,8295,0,0,0,2073,661.0256348,3,2,3,3,3
35,0,4354.871582,4141.025391,4170.256348,4348.717773,4569.743652,0,8184,8303,0,0,0,2073,668.7179565,3,2,3,3,3
36,0,4487.692383,4392.820313,4351.281738,4318.461426,4565.12793,0,8186,8302,0,0,0,2073,676.9230347,3,2,3,3,3
37,0,4388.717773,4426.153809,4505.641113,4471.794922,4362.563965,0,8194,8305,0,0,0,2073,684.6153564,3,2,3,3,3
38,0,4125.12793,4207.179199,4561.025391,4616.410156,4377.435547,0,8189,8303,0,0,0,2073,692.3076782,3,2,3,3,3
39,0,4302.563965,4368.717773,4520.512695,4366.666504,4487.692383,0,8194,8293,0,0,0,2073,700,3,2,3,3,3
40,0,4604.615234,4653.846191,4433.333008,4096.410156,4541.538574,0,8188,8296,0,0,0,2073,708.2051392,3,2,3,3,3
41,0,4428.205078,4399.487305,4355.384277,4265.12793,4634.871582,0,8198,8305,0,0,0,2073,715.8973999,3,2,3,3,3
42,0,4313.846191,4100.512695,4278.974121,4445.12793,4638.461426,0,8195,8302,0,0,0,2073,724.1025391,3,2,3,3,3
43,0,4469.743652,4365.641113,4383.07666,4446.153809,4377.435547,0,8189,8306,0,0,0,2073,731.7948608,3,2,3,3,3
44,0,4379.487305,4484.102539,4410.769043,4349.230469,4314.871582,0,8186,8292,0,0,0,2073,739.4871826,3,2,3,3,3
45,0,4223.07666,4162.05127,4167.692383,4217.436035,4535.384277,0,8193,8277,0,0,0,2073,747.6922607,3,2,3,3,3
46,0,4287.692383,4074.871582,4160,4244.615234,4422.05127,0,8187,8295,0,0,0,2073,755.3845825,3,2,3,3,3
47,0,4286.153809,4281.025391,4425.641113,4382.05127,4222.05127,0,8191,8287,0,0,0,2073,763.0769043,3,2,3,3,3
48,0,4246.153809,4326.666504,4367.692383,4215.897461,4372.307617,0,8192,8296,0,0,0,2073,770.7692261,3,2,3,3,3
49,0,4310.256348,4256.410156,4145.641113,3963.076904,4526.153809,0,8192,8279,0,0,0,2073,778.9743652,3,2,3,3,3
50,0,4304.615234,4285.641113,4228.205078,4049.230713,4471.794922,0,8200,8273,0,0,0,2073,786.666626,3,2,3,3,3
51,0,4308.717773,4296.922852,4255.384277,4104.102539,4482.563965,0,8192,8282,0,0,0,2073,794.8717651,3,2,3,3,3
52,0,4467.692383,4300,4134.358887,4011.281982,4574.871582,0,8190,8278,0,0,0,2073,803.0769043,3,2,3,3,3
53,0,4610.769043,4437.435547,4282.563965,4104.615234,4441.538574,0,8191,8275,0,0,0,2073,810.7692261,3,2,3,3,3
54,0,4434.871582,4462.563965,4543.07666,4372.307617,4254.871582,0,8196,8270,0,0,0,2073,818.4615479,3,2,3,3,3
55,0,4135.897461,4233.333008,4478.974121,4464.102539,4361.025391,0,8195,8276,0,0,0,2073,826.1538086,3,2,3,3,3
56,0,4186.153809,4220,4317.94873,4377.435547,4474.871582,0,8188,8288,0,0,0,2073,833.8461304,3,2,3,3,3
57,0,4340.512695,4459.487305,4425.12793,4407.179199,4296.410156,0,8187,8273,0,0,0,2073,842.0512695,3,2,3,3,3
58,0,4259.487305,4391.281738,4405.12793,4392.820313,4282.05127,0,8186,8275,0,0,0,2073,849.7435913,3,2,3,3,3
59,0,4234.871582,4127.179199,4083.076904,4333.333008,4476.922852,0,8183,8279,0,0,0,2073,857.9486694,3,2,3,3,3
60,0,4313.846191,4151.281738,4027.692139,4396.410156,4380.512695,0,8191,8257,0,0,0,2073,865.6409912,3,2,3,3,3
61,0,4271.281738,4294.358887,4278.461426,4419.487305,4250.256348,0,8188,8276,0,0,0,2073,873.333313,3,2,3,3,3
62,0,4319.487305,4292.307617,4342.563965,4298.461426,4344.102539,0,8190,8276,0,0,0,2073,881.0256348,3,2,3,3,3
63,0,4512.820313,4271.794922,4248.205078,4235.384277,4389.743652,0,8187,8279,0,0,0,2073,889.2307739,3,2,3,3,3
64,0,4481.538574,4291.794922,4264.102539,4272.307617,4296.410156,500,8177,8287,0,0,0,2073,896.9230347,3,2,3,3,3
65,0,4250.769043,4294.871582,4330.769043,4377.435547,4268.717773,500,8173,8279,0,0,0,2073,905.1281738,3,2,3,3,3
66,0,4236.922852,4262.05127,4231.794922,4319.487305,4360.512695,16060,8169,8303,0,0,0,2073,912.8204956,3,2,3,3,3
67,0,4484.615234,4305.12793,4158.974121,4118.974121,4447.692383,500,8166,8303,0,0,0,2073,921.0256348,3,2,3,3,3
68,0,4440.512695,4349.230469,4284.102539,4201.025391,4283.589844,146,8168,8297,0,0,0,2073,928.7178955,3,1,3,3,3
69,0,4154.358887,4250.769043,4376.410156,4436.410156,4124.615234,500,8155,8304,0,0,0,2073,936.9230347,3,1,3,3,3
70,0,4106.666504,4098.974121,4326.666504,4413.846191,4215.897461,16320,8157,8291,0,0,0,2073,944.6153564,3,1,3,3,3
71,0,4294.871582,4213.846191,4380.512695,4393.846191,4224.102539,500,8154,8299,0,0,0,2073,952.8204956,3,1,3,3,3
72,0,4353.846191,4364.102539,4364.102539,4373.333008,4194.358887,500,8166,8308,0,0,0,2073,960.5128174,3,1,3,3,3
73,0,4340.512695,4186.666504,4216.410156,4237.436035,4392.820313,16268,8163,8290,0,0,0,2073,968.2050781,3,1,3,3,3
74,0,4415.897461,4090.769043,4307.692383,4323.07666,4426.153809,500,8170,8297,0,0,0,2073,976.4102173,3,1,3,3,3
75,0,4405.641113,4287.692383,4394.871582,4412.307617,4202.05127,16138,8189,8284,0,0,0,2073,984.1025391,3,1,3,3,3
76,0,4424.102539,4454.871582,4293.333008,4224.615234,4333.846191,500,8172,8282,0,0,0,2073,991.7948608,3,1,3,3,3
77,0,4466.666504,4441.025391,4329.230469,4174.358887,4446.666504,500,8167,8297,0,0,0,2073,1000,3,1,3,3,3
78,0,4445.641113,4435.384277,4443.07666,4325.12793,4252.307617,450,8178,8285,0,0,0,2074,7.692307472,3,1,3,3,3
79,0,4377.435547,4387.179199,4343.589844,4332.307617,4363.07666,16138,8175,8297,0,0,0,2074,15.38461494,3,1,3,3,3
80,0,4336.922852,4351.281738,4317.436035,4279.487305,4442.563965,450,8185,8289,0,0,0,2074,23.07692337,3,1,3,3,3
81,0,4465.12793,4469.230469,4423.589844,4196.922852,4286.153809,450,8194,8282,0,0,0,2074,30.76922989,3,1,3,3,3
82,0,4488.717773,4393.333008,4297.94873,4110.256348,4343.589844,450,8197,8290,0,0,0,2074,38.9743576,3,1,3,3,3
83,0,4406.153809,4291.281738,4275.897461,4381.025391,4437.435547,16138,8204,8267,0,0,0,2074,47.17948532,3,1,3,3,3
84,0,4349.230469,4329.230469,4392.307617,4544.102539,4190.769043,450,8210,8275,0,0,0,2074,54.87179184,3,1,3,3,3
85,0,4407.692383,4458.974121,4470.256348,4383.589844,4197.94873,450,8208,8270,0,0,0,2074,63.07692337,3,1,3,3,3
86,0,4410.256348,4417.435547,4386.666504,4247.692383,4535.384277,450,8209,8285,0,0,0,2074,70.76922607,3,1,3,3,3
87,0,4359.487305,4215.897461,4215.897461,4269.743652,4657.435547,16138,8204,8300,0,0,0,2074,78.46154022,3,1,3,3,3
88,0,4318.974121,4157.94873,4141.538574,4285.12793,4374.871582,450,8198,8304,0,0,0,2074,86.15384674,3,1,3,3,3
89,0,4349.230469,4211.794922,4164.102539,4208.205078,4168.717773,450,8206,8298,0,0,0,2074,93.84615326,3,1,3,3,3
90,0,4408.205078,4148.205078,4178.461426,4185.12793,4344.615234,450,8203,8299,0,0,0,2074,102.0512772,3,1,3,3,3
91,0,4273.333008,4025.640869,4127.179199,4269.743652,4501.025391,16138,8196,8302,0,0,0,2074,109.7435837,3,1,3,3,3
92,0,4192.307617,4075.384521,4134.358887,4267.692383,4472.307617,450,8197,8317,0,0,0,2074,117.9487152,3,1,3,3,3
93,0,4254.871582,4096.922852,4235.897461,4270.256348,4357.435547,450,8188,8321,0,0,0,2074,126.1538467,3,1,3,3,3
94,0,4205.641113,4074.871582,4388.205078,4512.820313,4157.94873,450,8190,8307,0,0,0,2074,133.8461456,3,1,3,3,3
95,0,4131.281738,4181.025391,4369.230469,4512.820313,4204.102539,16138,8190,8311,0,0,0,2074,141.5384521,3,1,3,3,3
96,0,4180,4210.256348,4151.794922,4162.05127,4513.846191,450,8188,8300,0,0,0,2074,149.2307587,3,1,3,3,3
97,0,4198.974121,4161.538574,4124.102539,4090.256348,4597.94873,450,8186,8308,0,0,0,2074,156.9230804,3,1,3,3,3
98,0,4150.769043,4174.358887,4226.666504,4217.436035,4535.897461,450,8193,8304,0,0,0,2074,165.1282043,3,1,3,3,3
99,0,4188.717773,4189.743652,4167.692383,4246.666504,4518.974121,16138,8193,8301,0,0,0,2074,172.8205109,3,1,3,3,3
100,0,4181.025391,4148.717773,4106.666504,4276.922852,4442.563965,450,8195,8301,0,0,0,2074,181.0256348,3,1,3,3,3
101,0,4133.333008,4209.743652,4332.307617,4337.436035,4376.922852,450,8189,8295,0,0,0,2074,189.2307587,3,1,3,3,3
102,0,4205.641113,4305.641113,4499.487305,4351.794922,4349.230469,450,8185,8302,0,0,0,2074,196.9230652,3,1,3,3,3
103,0,4277.94873,4267.692383,4300.512695,4311.794922,4397.94873,16138,8186,8311,0,0,0,2074,205.1282043,3,1,3,3,3
104,0,4196.922852,4288.205078,4271.794922,4387.179199,4432.820313,450,8186,8300,0,0,0,2074,212.8205109,3,1,3,3,3
105,0,4348.717773,4550.769043,4564.102539,4474.358887,4438.461426,450,8189,8307,0,0,0,2074,221.0256348,3,1,3,3,3
106,0,4628.717773,4667.179199,4568.205078,4323.589844,4560,450,8189,8301,0,0,0,2074,228.7179413,3,1,3,3,3
107,0,4419.487305,4455.897461,4378.974121,4256.410156,4631.281738,16138,8187,8303,0,0,0,2074,236.9230652,3,1,3,3,3
108,0,4143.07666,4335.897461,4416.922852,4440.512695,4528.205078,450,8189,8309,0,0,0,2074,244.6153717,3,1,3,3,3
109,0,4174.358887,4285.12793,4393.846191,4422.563965,4529.743652,450,8194,8297,0,0,0,2074,252.8205109,3,1,3,3,3
110,0,4117.436035,4155.897461,4365.641113,4355.897461,4554.871582,450,8190,8308,0,0,0,2074,261.0256348,3,1,3,3,3
111,0,4017.435791,4120,4557.94873,4520,4329.743652,16138,8192,8303,0,0,0,2074,268.7179565,3,1,3,3,3
112,0,4118.974121,4086.666504,4463.589844,4528.717773,4271.281738,450,8193,8310,0,0,0,2074,276.9230652,3,1,3,3,3
113,0,4244.102539,4036.923096,4113.333008,4266.666504,4479.487305,450,8194,8316,0,0,0,2074,284.615387,3,1,3,3,3
114,0,4381.538574,4244.102539,4193.846191,4104.102539,4546.666504,450,8193,8295,0,0,0,2074,292.8204956,3,1,3,3,3
115,0,4447.692383,4433.846191,4449.743652,4216.922852,4433.333008,16138,8196,8287,0,0,0,2074,300.5128174,3,1,3,3,3
116,0,4396.922852,4404.615234,4402.05127,4373.846191,4376.922852,450,8206,8287,0,0,0,2074,308.717926,3,1,3,3,3
117,0,4398.974121,4404.102539,4372.307617,4360,4340,450,8205,8291,0,0,0,2074,316.4102478,3,1,3,3,3
118,0,4310.256348,4303.589844,4408.205078,4338.974121,4400.512695,450,8211,8302,0,0,0,2074,324.615387,3,1,3,3,3
119,0,4244.615234,4234.358887,4332.307617,4316.922852,4577.94873,16138,8218,8288,0,0,0,2074,332.8204956,3,1,3,3,3
120,0,4343.589844,4463.07666,4413.333008,4291.794922,4408.717773,450,8216,8291,0,0,0,2074,340.5128174,3,1,3,3,3
121,0,4263.07666,4434.358887,4427.692383,4294.871582,4196.922852,450,8219,8296,0,0,0,2074,348.717926,3,1,3,3,3
122,0,4175.384277,4189.230469,4216.410156,4243.589844,4442.05127,450,8233,8287,0,0,0,2074,356.4102478,3,1,3,3,3
123,0,4384.615234,4338.461426,4181.538574,4158.461426,4560,16138,8221,8291,0,0,0,2074,364.615387,3,1,3,3,3
124,0,4477.435547,4476.922852,4233.846191,4139.487305,4358.974121,450,8222,8277,0,0,0,2074,372.3076782,3,1,3,3,3
125,0,4365.12793,4293.333008,4194.358887,4182.563965,4341.538574,450,8226,8277,0,0,0,2074,380.5128174,3,1,3,3,3
126,0,4280.512695,4122.563965,4198.461426,4276.922852,4400,450,8223,8290,0,0,0,2074,388.2051086,3,1,3,3,3
127,0,4152.820313,4051.281982,4263.589844,4469.230469,4358.461426,16138,8232,8281,0,0,0,2074,396.4102478,3,1,3,3,3
128,0,4063.076904,4133.333008,4339.487305,4529.230469,4238.974121,500,8219,8286,0,0,0,2074,404.615387,3,1,3,3,3
0,0,4120.512695,4324.615234,4426.666504,4506.153809,4072.307617,500,8221,8291,0,0,0,2074,412.3076782,3,1,3,3,3
1,0,4103.07666,4192.820313,4283.589844,4389.230469,4200,500,8216,8282,0,0,0,2074,420.5128174,3,1,3,3,3
2,0,4155.384277,3978.974365,4043.076904,4149.743652,4557.94873,16122,8215,8295,0,0,0,2074,428.2051086,3,1,3,3,3
3,0,4393.333008,4132.307617,4037.435791,4036.410156,4537.94873,500,8216,8288,0,0,0,2074,436.4102478,3,1,3,3,3
4,0,4538.974121,4376.922852,4224.615234,4050.256348,4294.358887,277,8209,8293,0,0,0,2074,444.1025391,3,2,3,3,3
5,0,4529.743652,4524.102539,4421.025391,4131.794922,4224.102539,500,8203,8297,0,0,0,2074,452.3076782,3,2,3,3,3
6,0,4473.846191,4605.12793,4497.435547,4304.102539,4252.820313,116,8208,8285,0,0,0,2074,460,3,2,1,3,3
7,0,4376.410156,4497.94873,4443.589844,4448.717773,4255.897461,500,8203,8308,0,0,0,2074,468.2051086,3,2,1,3,3
8,0,4271.281738,4286.153809,4298.461426,4375.384277,4332.820313,500,8199,8312,0,0,0,2074,476.4102478,3,2,1,3,3
9,0,4263.07666,4243.07666,4245.641113,4215.384277,4478.974121,137,8202,8314,0,0,0,2074,484.1025391,3,2,1,2,3
10,0,4319.487305,4332.307617,4398.461426,4325.12793,4378.461426,500,8200,8317,0,0,0,2074,492.3076782,3,2,1,2,3
11,0,4248.717773,4254.871582,4412.307617,4577.435547,4231.794922,149,8203,8298,0,0,0,2074,500,3,2,1,2,2
12,0,4109.743652,4096.410156,4208.205078,4589.743652,4390.769043,500,8201,8314,0,0,0,2074,508.2051086,3,2,1,2,2
13,0,4169.230469,4180,4219.487305,4411.281738,4426.153809,500,8211,8305,0,0,0,2074,515.8973999,3,2,1,2,2
14,0,4285.12793,4290.769043,4309.743652,4301.538574,4222.563965,450,8216,8304,0,0,0,2074,524.1025391,3,2,1,2,2
15,0,4233.333008,4202.05127,4198.974121,4268.205078,4282.05127,149,8216,8315,0,0,0,2074,531.7948608,3,2,1,2,2
16,0,4103.589844,4127.692383,4146.666504,4201.538574,4387.692383,0,8219,8301,0,0,0,2074,540,3,2,1,2,2
17,0,4189.230469,4212.307617,4224.102539,4172.307617,4263.589844,0,8222,8295,0,0,0,2074,548.2051392,3,2,1,2,2
18,0,4349.230469,4180,4097.94873,4127.692383,4184.615234,0,8223,8302,0,0,0,2074,555.8973999,3,2,1,2,2
19,0,4253.333008,4149.230469,4019.487061,4128.205078,4205.641113,0,8233,8285,0,0,0,2074,564.1025391,3,2,1,2,2
20,0,4023.076904,4198.974121,4218.461426,4255.384277,4151.281738,0,8238,8278,0,0,0,2074,571.7948608,3,2,1,2,2
21,0,4036.410156,4181.025391,4453.846191,4517.435547,4111.281738,0,8244,8261,0,0,0,2074,580,3,2,1,2,2
22,0,4209.230469,4175.384277,4417.94873,4602.563965,4290.256348,0,8253,8263,0,0,0,2074,587.6923218,3,2,1,2,2
23,0,4295.897461,4183.07666,4304.615234,4417.94873,4617.435547,0,8258,8273,0,0,0,2074,595.8973999,3,2,1,2,2
24,0,4400.512695,4180.512695,4341.025391,4291.794922,4600.512695,0,8257,8258,0,0,0,2074,603.5897217,3,2,1,2,2
25,0,4598.974121,4400.512695,4473.846191,4433.333008,4394.358887,0,8254,8253,0,0,0,2074,611.7948608,3,2,1,2,2
26,0,4558.974121,4566.153809,4530.769043,4643.07666,4626.153809,0,8264,8230,0,0,0,2074,620,3,2,1,2,2
27,0,4508.205078,4515.897461,4448.205078,4535.897461,4987.692383,0,8251,8214,0,0,0,2074,627.6923218,3,2,1,2,2
28,0,4523.589844,4446.153809,4309.230469,4180,4554.871582,0,8245,8229,0,0,0,2074,635.8973999,3,2,1,2,2
29,0,4327.179199,4336.410156,4415.384277,4286.153809,4070.769043,0,8248,8233,0,0,0,2074,643.5897217,3,2,1,2,2
30,0,4091.281982,4092.820313,4336.922852,4443.07666,4309.230469,0,8246,8246,0,0,0,2074,651.7948608,3,2,1,2,2
31,0,4306.666504,4182.563965,4080.512695,4146.666504,4627.692383,0,8245,8245,0,0,0,2074,659.4871826,3,2,1,2,2
32,0,4415.897461,4327.179199,4212.820313,4067.179443,4367.692383,0,8254,8258,0,0,0,2074,667.6923218,3,2,1,2,2
33,0,4253.846191,4289.743652,4549.743652,4354.871582,4142.563965,0,8249,8281,0,0,0,2074,675.3845825,3,2,1,2,2
34,0,4231.794922,4263.07666,4378.461426,4263.07666,4337.94873,0,8247,8290,0,0,0,2074,683.5897217,3,2,1,2,2
35,0,4282.05127,4274.358887,4192.820313,4163.589844,4530.256348,0,8255,8284,0,0,0,2074,691.7948608,3,2,1,2,2
36,0,4341.538574,4312.820313,4320,4322.05127,4482.563965,0,8250,8278,0,0,0,2074,699.4871826,3,2,1,2,2
37,0,4427.179199,4394.871582,4300,4301.025391,4325.641113,0,8245,8278,0,0,0,2074,707.6922607,3,2,1,2,2
38,0,4411.281738,4477.94873,4303.589844,4245.641113,4334.358887,0,8239,8297,0,0,0,2074,715.3845825,3,2,1,2,2
39,0,4426.153809,4486.153809,4417.435547,4300,4340.512695,0,8228,8312,0,0,0,2074,723.5897217,3,2,1,2,2
40,0,4577.94873,4510.256348,4451.794922,4289.230469,4149.230469,0,8229,8305,0,0,0,2074,731.2820435,3,2,1,2,2
41,0,4467.692383,4550.769043,4503.589844,4268.205078,4026.666504,0,8223,8320,0,0,0,2074,739.4871826,3,2,1,2,2
42,0,4296.922852,4460.512695,4484.102539,4340.512695,4253.333008,0,8214,8305,0,0,0,2074,747.1794434,3,2,1,2,2
43,0,4369.230469,4268.205078,4266.153809,4261.538574,4417.94873,0,8208,8315,0,0,0,2074,755.3845825,3,2,1,2,2
44,0,4327.179199,4249.230469,4225.641113,4196.410156,4279.487305,0,8218,8308,0,0,0,2074,763.5897217,3,2,1,2,2
45,0,4117.436035,4282.05127,4384.615234,4368.717773,4188.717773,0,8213,8296,0,0,0,2074,771.2820435,3,2,1,2,2
46,1,4150.769043,4305.12793,4398.974121,4364.615234,4180.512695,0,8214,8296,0,0,0,2074,779.4871826,3,2,1,2,2
47,1,4184.102539,4328.205078,4413.333008,4360.512695,4172.307617,0,8215,8296,0,0,0,2074,787.1794434,3,2,1,2,2
48,1,4217.436035,4351.281738,4427.692383,4356.410156,4164.102539,0,8216,8296,0,0,0,2074,794.8717651,3,2,1,2,2
49,1,4250.769043,4374.358887,4442.05127,4352.307617,4155.897461,0,8217,8296,0,0,0,2074,803.0769043,3,2,1,2,2
50,1,4284.102539,4397.435547,4456.410156,4348.205078,4147.692383,0,8218,8296,0,0,0,2074,810.7692261,3,2,1,2,2
51,1,4317.436035,4420.512695,4470.769043,4344.102539,4139.487305,0,8219,8296,0,0,0,2074,818.4615479,3,2,1,2,2
52,1,4350.769043,4443.589844,4485.12793,4340,4131.281738,0,8220,8296,0,0,0,2074,826.666626,3,2,1,2,2
53,1,4384.102539,4466.666504,4499.487305,4335.897461,4123.07666,0,8221,8296,0,0,0,2074,834.3589478,3,2,1,2,2
54,0,4417.94873,4492.307617,4514.871582,4331.794922,4114.871582,0,8229,8289,0,0,0,2074,842.0512695,3,2,1,2,2
55,0,4321.538574,4482.563965,4572.307617,4418.974121,4227.179199,0,8220,8270,0,0,0,2074,849.7435913,3,2,1,2,2
56,0,4216.410156,4156.922852,4312.820313,4512.307617,4277.436035,0,8230,8273,0,0,0,2074,857.9486694,3,2,1,2,2
57,0,4289.230469,4109.230469,4217.94873,4451.281738,4308.205078,0,8234,8270,0,0,0,2074,865.6409912,3,2,1,2,2
58,0,4345.12793,4305.641113,4377.94873,4341.538574,4393.846191,0,8239,8271,0,0,0,2074,873.333313,3,2,1,2,2
59,0,4249.230469,4275.384277,4260,4221.025391,4422.563965,0,8235,8291,0,0,0,2074,881.0256348,3,2,1,2,2
60,0,4205.641113,4142.05127,4125.12793,4259.487305,4488.205078,0,8238,8277,0,0,0,2074,888.7179565,3,2,1,2,2
61,0,4256.410156,4230.769043,4417.94873,4412.307617,4481.538574,0,8245,8274,0,0,0,2074,896.4102173,3,2,1,2,2
62,0,4387.179199,4548.205078,4716.410156,4428.205078,4347.179199,0,8251,8280,0,0,0,2074,904.6153564,3,2,1,2,2
63,0,4436.410156,4523.07666,4421.025391,4192.820313,4288.717773,0,8253,8292,0,0,0,2074,912.3076782,3,2,1,2,2
64,0,4546.666504,4342.563965,4115.384277,4140,4340.512695,500,8250,8306,0,0,0,2074,920,3,2,1,2,2
65,0,4536.410156,4409.743652,4238.461426,4274.871582,4328.205078,500,8258,8293,0,0,0,2074,927.6922607,3,2,1,2,2
66,0,4254.358887,4450.256348,4401.025391,4273.333008,4285.12793,107,8258,8301,0,0,0,2074,935.3845825,1,2,1,2,2
67,0,4183.07666,4336.922852,4361.538574,4178.461426,4308.205078,500,8253,8303,0,0,0,2074,943.0769043,1,2,1,2,2
68,0,4446.666504,4412.820313,4392.307617,4240,4465.641113,113,8256,8293,0,0,0,2074,951.2820435,1,1,1,2,2
69,0,4425.641113,4507.179199,4528.205078,4400,4528.717773,500,8260,8303,0,0,0,2074,958.9743652,1,1,1,2,2
70,0,4231.281738,4434.871582,4591.794922,4508.205078,4373.333008,16341,8271,8313,0,0,0,2074,966.666626,1,1,3,2,2
71,0,4352.307617,4346.666504,4334.871582,4315.897461,4292.307617,500,8274,8295,0,0,0,2074,974.3589478,1,1,3,2,2
72,0,4697.435547,4454.871582,4183.589844,4174.871582,4508.717773,500,8275,8298,0,0,0,2074,982.0512695,1,1,3,2,2
73,0,4557.435547,4385.12793,4222.563965,4193.333008,4408.717773,16085,8282,8298,0,0,0,2074,989.7435913,1,1,3,3,2
74,0,4195.384277,4166.153809,4216.922852,4260.512695,4220,500,8291,8313,0,0,0,2074,997.9486694,1,1,3,3,2
75,0,4161.538574,4175.384277,4217.436035,4195.384277,4287.692383,215,8307,8310,0,0,0,2075,5.641025543,1,1,3,3,2
76,0,4131.794922,4199.487305,4305.641113,4036.923096,4081.025635,500,8310,8295,0,0,0,2075,13.33333302,1,1,3,3,2
77,0,4123.589844,4123.589844,4392.307617,4214.871582,4099.487305,500,8308,8306,0,0,0,2075,21.02564049,1,1,3,3,2
78,0,4325.12793,4206.666504,4390.256348,4441.025391,4658.974121,450,8312,8303,0,0,0,2075,28.71794891,1,1,3,3,2
79,0,4482.05127,4372.820313,4294.871582,4338.461426,4790.769043,215,8315,8311,0,0,0,2075,36.41025543,1,1,3,3,2
80,0,4240,4210.769043,4080.512695,4046.153809,4208.717773,450,8317,8316,0,0,0,2075,44.61538315,1,1,3,3,2
81,0,4168.205078,4228.717773,4182.05127,4184.102539,4225.641113,450,8321,8297,0,0,0,2075,52.30768967,1,1,3,3,2
82,0,4110.256348,4191.281738,4218.974121,4247.179199,4397.94873,450,8319,8313,0,0,0,2075,60,1,1,3,3,2
83,0,3802.563965,3793.845947,3984.615234,4005.128174,4035.384521,215,8315,8293,0,0,0,2075,67.69230652,1,1,3,3,2
84,0,4110.769043,4087.179443,4297.436035,4321.025391,4252.307617,450,8311,8296,0,0,0,2075,75.38461304,1,1,3,3,2
85,0,4656.922852,4683.589844,4697.435547,4747.179199,4886.666504,450,8311,8291,0,0,0,2075,83.07691956,1,1,3,3,2
86,0,4267.179199,4264.102539,4223.589844,4279.487305,4487.179199,450,8310,8277,0,0,0,2075,91.28205109,1,1,3,3,2
87,0,3913.845947,3904.102539,3927.179443,3927.692139,3969.230713,215,8310,8282,0,0,0,2075,98.9743576,1,1,3,3,2
88,0,3937.435791,3948.205078,3944.102539,3913.845947,3900,450,8303,8283,0,0,0,2075,106.6666641,1,1,3,3,2
89,0,3960.512695,3957.94873,3997.94873,4074.871582,4074.358887,450,8310,8278,0,0,0,2075,114.3589706,1,1,3,3,2
90,0,3694.358887,3694.358887,3820.512695,3972.820313,4022.563965,450,8311,8284,0,0,0,2075,122.0512772,1,1,3,3,2
91,0,3973.845947,3973.845947,4004.615234,4033.333252,4063.5896,215,8380,8341,0,0,0,2075,129.7435913,1,1,3,3,2
92,0,4323.589844,4321.538574,4283.07666,4242.563965,4097.94873,450,8309,8383,0,0,0,2075,137.9487152,1,1,3,3,2
93,0,4280,4271.281738,4271.794922,4268.205078,4047.692139,450,8294,8396,0,0,0,2075,145.6410217,1,1,3,3,2
94,0,4268.205078,4262.05127,4278.974121,4292.820313,4099.487305,450,8282,8367,0,0,0,2075,153.3333282,1,1,3,3,2
95,0,4514.871582,4537.435547,4516.922852,4501.025391,4425.12793,215,8278,8286,0,0,0,2075,161.0256348,1,1,3,3,2
96,0,4525.641113,4507.692383,4502.05127,4443.589844,4506.153809,450,8291,8237,0,0,0,2075,168.7179413,1,1,3,3,2
97,0,4230.256348,4215.384277,4287.692383,4246.153809,4314.871582,450,8290,8196,0,0,0,2075,176.4102478,1,1,3,3,2
98,0,4168.205078,4327.179199,4393.333008,4404.615234,4370.256348,450,8280,8205,0,0,0,2075,184.615387,1,1,3,3,2
99,0,4088.717773,4307.179199,4361.025391,4436.922852,4412.307617,215,8269,8245,0,0,0,2075,192.3076935,1,1,3,3,2
100,0,4068.717773,4068.205078,4105.12793,4216.922852,4280,450,8262,8273,0,0,0,2075,200,1,1,3,3,2
101,0,4193.846191,4091.794678,4069.743408,4124.615234,4140,450,8241,8269,0,0,0,2075,207.6923065,1,1,3,3,2
102,0,3924.615234,3983.076904,4023.5896,3926.666504,3908.205078,450,8176,8233,0,0,0,2075,215.384613,1,1,3,3,2
103,0,4050.256348,4153.846191,4313.333008,4252.307617,4243.07666,215,8146,8213,0,0,0,2075,223.0769196,1,1,3,3,2
104,0,4261.025391,4203.07666,4327.692383,4483.589844,4516.922852,450,8184,8187,0,0,0,2075,231.2820435,1,1,3,3,2
105,0,4212.820313,4144.102539,4217.436035,4419.487305,4506.153809,450,8226,8218,0,0,0,2075,238.97435,1,1,3,3,2
106,0,4004.102539,4069.230713,4171.281738,4285.12793,4314.358887,450,8231,8226,0,0,0,2075,246.6666565,1,1,3,3,2
107,0,4235.897461,4268.717773,4344.615234,4382.05127,4451.794922,215,8214,8287,0,0,0,2075,254.358963,1,1,3,3,2
108,0,4336.410156,4253.333008,4225.641113,4206.666504,4462.05127,450,8212,8329,0,0,0,2075,262.0512695,1,1,3,3,2
109,0,4449.743652,4366.666504,4247.179199,4129.743652,4398.974121,450,8208,8344,0,0,0,2075,269.7435913,1,1,3,3,2
110,0,4396.922852,4379.487305,4341.025391,4230.256348,4287.692383,450,8207,8337,0,0,0,2075,277.9487,1,1,3,3,2
111,0,4119.487305,4194.358887,4314.358887,4272.307617,4228.205078,215,8205,8313,0,0,0,2075,285.6410217,1,1,3,3,2
112,0,4019.487061,4106.153809,4214.871582,4300,4304.615234,450,8179,8290,0,0,0,2075,293.333313,1,1,3,3,2
113,0,4090.256348,3984.102539,4012.307617,4126.153809,4237.436035,450,8180,8301,0,0,0,2075,301.0256348,1,1,3,3,2
114,0,4592.820313,4358.974121,4284.102539,4349.743652,4665.641113,450,8194,8296,0,0,0,2075,308.717926,1,1,3,3,2
115,0,4238.974121,4107.692383,3964.102539,4053.845947,4343.589844,215,8203,8300,0,0,0,2075,316.4102478,1,1,3,3,2
116,0,4110.769043,4002.563965,3973.845947,3988.717773,4095.384521,450,8225,8314,0,0,0,2075,324.615387,1,1,3,3,2
117,0,5055.897461,4877.435547,4905.12793,4873.333008,5062.563965,450,8242,8301,0,0,0,2075,332.3076782,1,1,3,3,2
118,0,4485.12793,4332.820313,4316.922852,4375.897461,4658.461426,450,8240,8316,0,0,0,2075,340,1,1,3,3,2
119,0,3722.563965,3678.974365,3816.410156,3892.820313,3891.794678,215,8229,8295,0,0,0,2075,347.6922913,1,1,3,3,2
120,0,4159.487305,4184.615234,4371.794922,4286.666504,4113.333008,450,8233,8287,0,0,0,2075,355.384613,1,1,3,3,2
121,0,4215.897461,4207.179199,4201.025391,4064.102539,4187.179199,450,8235,8283,0,0,0,2075,363.0769043,1,1,3,3,2
122,0,3063.076904,3057.94873,3016.923096,2887.179443,3127.692139,450,8244,8269,0,0,0,2075,371.2820435,1,1,3,3,2
123,0,3529.743408,3567.179443,3595.384521,3387.692139,3369.230713,215,8247,8289,0,0,0,2075,378.9743347,1,1,3,3,2
124,0,4489.230469,4384.102539,4385.12793,4331.794922,4258.974121,450,8264,8279,0,0,0,2075,386.6666565,1,1,3,3,2
125,0,4165.641113,3930.256348,3911.281982,3972.307617,4015.384521,450,8268,8262,0,0,0,2075,394.3589783,1,1,3,3,2
126,0,3690.256348,3616.923096,3620.512695,3633.845947,3587.179443,450,8275,8260,0,0,0,2075,402.0512695,1,1,3,3,2
127,0,3582.563965,3645.640869,3644.615234,3620,3543.5896,215,8279,8248,0,0,0,2075,409.7435913,1,1,3,3,2
128,0,3713.333252,3710.256348,3716.923096,3738.974365,3691.281982,500,8282,8238,0,0,0,2075,417.4358826,1,1,3,3,2
0,0,3668.205078,3648.205078,3638.974365,3640,3422.05127,500,8283,8254,0,0,0,2075,425.6410217,1,1,3,3,2
1,0,4015.897217,4015.384521,3994.358887,3952.307617,3775.897461,500,8293,8247,0,0,0,2075,433.333313,1,1,3,3,2
2,0,4487.179199,4470.769043,4510.769043,4502.05127,4555.897461,107,8289,8272,0,0,0,2075,441.0256348,1,1,3,3,2
3,0,4347.179199,4286.153809,4239.487305,4269.743652,4319.487305,500,8290,8272,0,0,0,2075,448.717926,1,1,3,3,2
4,0,4072.820313,3955.384521,3835.384521,3849.743408,3803.076904,71,8276,8291,0,0,0,2075,456.4102478,1,1,3,3,2
5,0,3763.076904,3697.94873,3769.743408,3778.974365,3748.205078,500,8269,8303,0,0,0,2075,464.1025391,1,1,3,3,2
6,0,3497.435791,3560,3767.179443,3781.53833,3854.358887,16326,8268,8284,0,0,0,2075,472.3076782,1,1,3,3,2
7,0,3305.640869,3430.256348,3568.717773,3560.512695,3516.923096,500,8252,8301,0,0,0,2075,480,1,1,3,3,2
8,0,3288.717773,3384.102539,3463.5896,3495.897461,3234.358887,500,8251,8309,0,0,0,2075,487.6922913,1,1,3,3,2
9,0,3325.128174,3351.281982,3376.410156,3378.461426,3307.692139,16321,8238,8323,0,0,0,2075,495.384613,1,1,3,3,2
10,0,3453.333252,3438.974365,3427.179443,3227.179443,3471.281982,500,8225,8341,0,0,0,2075,503.0769043,1,1,3,3,2
11,0,3597.435791,3582.05127,3579.487061,3350.256348,3600,16233,8228,8339,0,0,0,2075,510.7692261,1,1,3,3,3
12,0,3622.563965,3627.692139,3548.205078,3422.05127,3600,500,8222,8329,0,0,0,2075,518.9743652,1,1,3,3,3
13,0,3286.153809,3252.307617,3245.128174,3163.076904,3262.05127,500,8222,8322,0,0,0,2075,526.666626,1,1,3,3,3
14,0,3220,3135.384521,3409.230713,3328.205078,3308.717773,450,8228,8300,0,0,0,2075,534.3589478,1,1,3,3,3
15,0,4096.410156,4047.692139,4293.846191,4277.436035,4277.436035,16233,8225,8307,0,0,0,2075,542.0512695,1,1,3,3,3
16,0,4253.846191,4302.563965,4316.922852,4357.94873,4382.05127,0,8218,8308,0,0,0,2075,549.7435913,1,1,3,3,3
17,0,3706.666504,3726.666504,3701.025635,3749.743408,3842.563965,0,8230,8292,0,0,0,2075,557.4359131,1,1,3,3,3
18,0,3545.128174,3479.487061,3498.461426,3438.461426,3671.281982,0,8232,8292,0,0,0,2075,565.6409912,1,1,3,3,3
19,0,3895.897461,3955.384521,3939.487061,3756.923096,3821.025635,0,8236,8291,0,0,0,2075,573.333313,1,1,3,3,3
20,0,4047.692139,4236.922852,4217.94873,4064.102539,3926.153809,0,8242,8300,0,0,0,2075,581.0256348,1,1,3,3,3
21,0,4231.794922,4317.94873,4329.743652,4220,4133.333008,0,8244,8279,0,0,0,2075,588.7179565,1,1,3,3,3
22,0,4366.666504,4341.538574,4312.307617,4160,4107.179199,0,8257,8258,0,0,0,2075,596.4102173,1,1,3,3,3
23,0,4203.07666,4198.461426,4236.410156,4011.281982,3990.769043,0,8251,8273,0,0,0,2075,604.1025391,1,1,3,3,3
24,0,4122.563965,4126.666504,4304.102539,4185.641113,4173.333008,0,8257,8271,0,0,0,2075,612.3076782,1,1,3,3,3
25,0,4030.256348,4031.794678,4230.769043,4290.256348,4110.769043,0,8260,8274,0,0,0,2075,620,1,1,3,3,3
26,0,4066.153809,4070.769043,4226.666504,4337.94873,4104.102539,0,8263,8259,0,0,0,2075,627.6923218,1,1,3,3,3
27,0,4297.94873,4168.717773,4222.563965,4272.307617,4326.153809,0,8271,8247,0,0,0,2075,635.3845825,1,1,3,3,3
28,0,4496.410156,4311.794922,4241.025391,4251.281738,4356.410156,0,8261,8248,0,0,0,2075,643.0769043,1,1,3,3,3
29,0,4414.358887,4425.12793,4365.12793,4362.05127,4148.205078,0,8258,8250,0,0,0,2075,650.7692261,1,1,3,3,3
30,0,4188.205078,4237.436035,4254.358887,4263.589844,4151.794922,0,8261,8261,0,0,0,2075,658.9743652,1,1,3,3,3
31,0,4193.333008,4081.025635,4096.410156,4109.743652,4368.205078,0,8244,8284,0,0,0,2075,666.666626,1,1,3,3,3
32,0,4333.333008,4209.230469,4185.641113,4162.05127,4295.897461,0,8246,8275,0,0,0,2075,674.3589478,1,1,3,3,3
33,0,4453.333008,4303.07666,4277.436035,4273.333008,4191.281738,0,8235,8273,0,0,0,2075,682.0512695,1,1,3,3,3
34,0,4081.025635,3912.307617,4037.94873,4074.358887,4072.307617,0,8232,8282,0,0,0,2075,689.7435913,1,1,3,3,3
35,0,3889.230713,3863.5896,4140.512695,4143.589844,4139.487305,0,8218,8298,0,0,0,2075,697.4358521,1,1,3,3,3
36,0,4610.769043,4512.820313,4606.153809,4623.07666,4672.307617,0,8210,8311,0,0,0,2075,705.6409912,1,1,3,3,3
37,0,4750.256348,4500.512695,4414.871582,4474.871582,4602.05127,0,8207,8297,0,0,0,2075,713.333313,1,1,3,3,3
38,0,3846.666504,3801.025635,3824.102539,3907.179443,3819.487061,0,8204,8297,0,0,0,2075,721.0256348,1,1,3,3,3
39,0,3784.615234,3832.820313,3841.53833,3868.717773,3882.563965,0,8197,8301,0,0,0,2075,728.7179565,1,1,3,3,3
40,0,4822.05127,4556.922852,4383.589844,4373.846191,4707.692383,0,8192,8301,0,0,0,2075,736.4102173,1,1,3,3,3
41,0,4843.589844,4545.12793,4350.256348,4395.897461,4583.07666,0,8183,8324,0,0,0,2075,744.1025391,1,1,3,3,3
42,0,4351.794922,4376.410156,4303.07666,4263.07666,4371.281738,0,8182,8308,0,0,0,2075,752.3076782,1,1,3,3,3
43,0,4332.307617,4363.07666,4509.230469,4305.641113,4546.666504,0,8180,8314,0,0,0,2075,760,1,1,3,3,3
44,0,4140.512695,3929.743408,4145.12793,4034.871582,4223.07666,0,8169,8313,0,0,0,2075,767.6922607,1,1,3,3,3
45,0,3652.820313,3498.974365,3560.512695,3526.153809,3655.384521,0,8174,8305,0,0,0,2075,775.3845825,1,1,3,3,3
46,0,4027.179443,4023.076904,4035.897217,3932.820313,4070.256348,0,8176,8316,0,0,0,2075,783.0769043,1,1,3,3,3
47,0,4563.589844,4434.358887,4495.897461,4503.589844,4694.358887,0,8170,8303,0,0,0,2075,790.7692261,1,1,3,3,3
48,0,4336.922852,4248.205078,4337.94873,4433.333008,4621.025391,0,8165,8291,0,0,0,2075,798.9743652,1,1,3,3,3
49,0,4228.205078,4375.384277,4457.435547,4432.820313,4468.205078,0,8167,8296,0,0,0,2075,806.666626,1,1,3,3,3
50,0,4326.666504,4456.922852,4548.717773,4530.769043,4520,0,8171,8283,0,0,0,2075,814.3589478,1,1,3,3,3
51,0,4433.846191,4465.641113,4595.897461,4617.435547,4705.12793,0,8160,8293,0,0,0,2075,822.0512695,1,1,3,3,3
52,0,4794.871582,4792.307617,4932.307617,4844.615234,4884.102539,0,8170,8273,0,0,0,2075,829.7435913,1,1,3,3,3
53,0,4858.461426,4848.205078,4905.641113,4897.435547,4906.153809,0,8175,8259,0,0,0,2075,837.4358521,1,1,3,3,3
54,0,4392.307617,4538.974121,4561.538574,4640.512695,4720,0,8182,8266,0,0,0,2075,845.6409912,1,1,3,3,3
55,0,4377.435547,4492.820313,4528.717773,4529.230469,4555.897461,0,8181,8253,0,0,0,2075,853.333313,1,1,3,3,3
56,0,4649.230469,4457.94873,4381.025391,4422.563965,4437.435547,0,8185,8271,0,0,0,2075,861.0256348,1,1,3,3,3
57,0,4582.05127,4412.820313,4283.07666,4388.717773,4383.589844,0,8180,8268,0,0,0,2075,868.7179565,1,1,3,3,3
58,0,4588.717773,4567.179199,4522.563965,4526.666504,4514.358887,0,8185,8255,0,0,0,2075,876.4102173,1,1,3,3,3
59,0,4632.820313,4498.974121,4666.153809,4693.846191,4629.743652,0,8184,8272,0,0,0,2075,884.1025391,1,1,3,3,3
60,0,4285.12793,4126.153809,4466.153809,4597.94873,4353.846191,0,8186,8275,0,0,0,2075,892.3076782,1,1,3,3,3
61,0,4248.717773,4271.281738,4414.871582,4362.05127,4194.871582,0,8191,8285,0,0,0,2075,900,1,1,3,3,3
62,0,4418.974121,4513.846191,4416.922852,4245.12793,4272.307617,0,8187,8296,0,0,0,2075,907.6922607,1,1,3,3,3
63,0,4010.769043,3955.384521,3903.5896,3947.692139,3992.307617,0,8193,8289,0,0,0,2075,915.3845825,1,1,3,3,3
64,0,3734.358887,3580,3580.512695,3645.640869,3775.897461,500,8191,8305,0,0,0,2075,923.0769043,1,1,3,3,3
65,0,4438.974121,4421.538574,4401.538574,4105.641113,4432.820313,500,8193,8298,0,0,0,2075,930.7692261,1,1,3,3,3
66,0,4852.820313,4907.179199,4893.846191,4500.512695,4807.692383,317,8192,8295,0,0,0,2075,938.9743652,2,1,3,3,3
67,0,4507.179199,4381.025391,4271.281738,4136.410156,4373.333008,500,8179,8291,0,0,0,2075,946.666626,2,1,3,3,3
68,0,4628.205078,4481.025391,4345.641113,4357.435547,4490.769043,40,8181,8269,0,0,0,2075,954.3589478,2,0,3,3,3
69,0,4515.384277,4543.589844,4557.435547,4576.922852,4467.692383,500,8185,8273,0,0,0,2075,962.0512695,2,0,3,3,3
70,0,3788.717773,3793.333252,3814.358887,3818.461426,3806.666504,16115,8173,8284,0,0,0,2075,969.7435913,2,0,3,3,3
71,0,3831.281982,3824.102539,3780,3663.076904,3856.410156,500,8172,8286,0,0,0,2075,977.4358521,2,0,3,3,3
72,0,4783.07666,4891.281738,4896.410156,4717.435547,4678.461426,500,8179,8291,0,0,0,2075,985.6409912,2,0,3,3,3
73,0,4584.102539,4691.794922,4741.538574,4774.871582,4395.384277,207,8181,8284,0,0,0,2075,993.333313,2,0,3,2,3
74,0,3643.5896,3621.53833,3630.769043,3735.384521,3526.666504,500,8171,8287,0,0,0,2076,1.025640965,2,0,3,2,3
75,0,3876.410156,3825.640869,3769.743408,3649.743408,3747.692139,143,8173,8313,0,0,0,2076,8.717948914,2,0,3,2,1
76,0,4765.641113,4800,4703.589844,4538.974121,4682.563965,500,8180,8311,0,0,0,2076,16.41025543,2,0,3,2,1
77,0,4624.615234,4695.897461,4657.94873,4635.384277,4768.717773,500,8170,8325,0,0,0,2076,24.10256386,2,0,3,2,1
78,0,3737.435791,3747.179443,3775.897461,3799.487061,3885.640869,450,8179,8317,0,0,0,2076,32.30768967,2,0,3,2,1
79,0,3652.820313,3617.94873,3637.94873,3625.640869,3575.897461,143,8186,8322,0,0,0,2076,40,2,0,3,2,1
80,0,4159.487305,4201.025391,4354.358887,4373.333008,4225.641113,450,8177,8335,0,0,0,2076,47.69230652,2,0,3,2,1
81,0,4292.820313,4338.461426,4607.692383,4774.871582,4609.230469,450,8181,8319,0,0,0,2076,55.38461304,2,0,3,2,1
82,0,3885.128174,3903.5896,4012.820313,4190.256348,4013.845947,450,8180,8322,0,0,0,2076,63.07692337,2,0,3,2,1
83,0,3548.717773,3640.512695,3631.281982,3621.53833,3504.615234,143,8186,8316,0,0,0,2076,70.76922607,2,0,3,2,1
84,0,4091.794678,4192.820313,4267.179199,4157.436035,4104.102539,450,8186,8309,0,0,0,2076,78.9743576,2,0,3,2,1
85,0,4875.897461,4894.871582,4939.486816,4953.333008,4845.12793,450,8189,8324,0,0,0,2076,86.66666412,2,0,3,2,1
86,0,4426.153809,4366.666504,4247.692383,4298.974121,4323.07666,450,8145,8267,0,0,0,2076,94.35897064,2,0,3,2,1
87,0,3850.256348,3762.563965,3637.94873,3561.025635,3850.256348,143,8164,8241,0,0,0,2076,102.0512772,2,0,3,2,1
88,0,4187.692383,4146.666504,4107.179199,4026.153809,4216.410156,450,8180,8217,0,0,0,2076,109.7435837,2,0,3,2,1
89,0,3767.692139,3801.53833,3836.410156,3841.53833,3737.94873,450,8184,8190,0,0,0,2076,117.4358978,2,0,3,2,1
90,0,2515.384521,2534.358887,2598.974365,2634.358887,2545.128174,450,8191,8217,0,0,0,2076,125.6410217,2,0,3,2,1
91,0,2035.897339,2054.358887,2072.820557,2067.179443,2004.615356,143,8197,8343,0,0,0,2076,133.3333282,2,0,3,2,1
92,0,3533.333252,3631.794678,3617.435791,3460,3383.5896,450,8180,8394,0,0,0,2076,141.0256348,2,0,3,2,1
93,0,6780.512695,6876.922852,6870.256348,6700.512695,6665.12793,450,8174,8403,0,0,0,2076,148.7179413,2,0,3,2,1
94,0,7818.461426,7805.12793,7826.666504,7860,7792.820313,450,8186,8335,0,0,0,2076,156.4102478,2,0,3,2,1
95,0,5251.794922,5193.333008,5224.615234,5440.512695,5358.461426,143,8195,8318,0,0,0,2076,164.1025543,2,0,3,2,1
96,0,3560.512695,3650.769043,3676.923096,3773.333252,3644.102539,450,8212,8292,0,0,0,2076,172.3076935,2,0,3,2,1
97,0,4644.102539,4750.769043,4744.615234,4635.897461,4566.153809,450,8205,8283,0,0,0,2076,180,2,0,3,2,1
98,0,4641.025391,4627.692383,4629.230469,4487.179199,4541.538574,450,8220,8285,0,0,0,2076,187.6923065,2,0,3,2,1
99,0,4005.640869,4118.974121,4116.410156,4048.717773,3897.94873,143,8237,8281,0,0,0,2076,195.384613,2,0,3,2,1
100,0,4182.563965,4345.641113,4318.461426,4329.743652,4112.307617,450,8262,8302,0,0,0,2076,203.0769196,2,0,3,2,1
101,0,4262.563965,4236.410156,4332.307617,4465.12793,4549.743652,450,8290,8299,0,0,0,2076,210.7692261,2,0,3,2,1
102,0,4048.205078,4139.487305,4275.897461,4369.743652,4486.666504,450,8310,8263,0,0,0,2076,218.97435,2,0,3,2,1
103,0,4243.589844,4436.922852,4438.974121,4321.025391,4356.410156,143,8348,8250,0,0,0,2076,226.6666565,2,0,3,2,1
104,0,4419.487305,4340.512695,4409.230469,4212.820313,4365.641113,450,8359,8241,0,0,0,2076,234.358963,2,0,3,2,1
105,0,4276.922852,4177.94873,4393.846191,4312.820313,4410.256348,450,8363,8245,0,0,0,2076,242.0512695,2,0,3,2,1
106,0,4220.512695,4266.666504,4333.333008,4348.205078,4464.615234,450,8368,8232,0,0,0,2076,249.743576,2,0,3,2,1
107,0,4420.512695,4378.461426,4285.12793,4213.846191,4464.102539,143,8364,8213,0,0,0,2076,257.4358826,2,0,3,2,1
108,0,4454.358887,4435.384277,4472.307617,4317.94873,4272.820313,450,8336,8213,0,0,0,2076,265.6410217,2,0,3,2,1
109,0,4352.307617,4345.641113,4492.820313,4430.769043,4312.820313,450,8309,8203,0,0,0,2076,273.333313,2,0,3,2,1
110,0,4349.743652,4281.538574,4319.487305,4398.974121,4484.615234,450,8286,8179,0,0,0,2076,281.0256348,2,0,3,2,1
111,0,4401.025391,4430.769043,4365.12793,4403.07666,4382.563965,143,8250,8203,0,0,0,2076,288.7179565,2,0,3,2,1
112,0,4427.179199,4335.384277,4424.615234,4381.025391,4364.615234,450,8238,8199,0,0,0,2076,296.4102478,2,0,3,2,1
113,0,4308.717773,4031.281982,4370.769043,4386.666504,4537.435547,450,8222,8213,0,0,0,2076,304.1025696,2,0,3,2,1
114,0,4119.487305,4008.205078,4321.025391,4529.230469,4526.666504,450,8223,8227,0,0,0,2076,312.3076782,2,0,3,2,1
115,0,4208.717773,4159.487305,4230.256348,4501.025391,4449.230469,143,8208,8256,0,0,0,2076,320,2,0,3,2,1
116,0,4514.871582,4335.384277,4289.743652,4167.179199,4515.897461,450,8205,8292,0,0,0,2076,327.6922913,2,0,3,2,1
117,0,4527.179199,4453.846191,4411.794922,4071.794678,4506.666504,450,8196,8290,0,0,0,2076,335.384613,2,0,3,2,1
118,0,4283.07666,4384.102539,4394.871582,4396.410156,4301.025391,450,8158,8302,0,0,0,2076,343.0769043,2,0,3,2,1
119,0,4216.410156,4237.94873,4368.205078,4524.615234,4229.743652,143,8157,8310,0,0,0,2076,350.7692261,2,0,3,2,1
120,0,4350.256348,4251.281738,4380,4342.05127,4425.641113,450,8146,8321,0,0,0,2076,358.9743652,2,0,3,2,1
121,0,4479.487305,4389.743652,4391.281738,4341.025391,4483.07666,450,8138,8345,0,0,0,2076,366.6666565,2,0,3,2,1
122,0,4518.461426,4521.025391,4471.281738,4533.846191,4244.102539,450,8144,8325,0,0,0,2076,374.3589783,2,0,3,2,1
123,0,4468.205078,4534.358887,4565.641113,4524.615234,4116.410156,143,8160,8279,0,0,0,2076,382.0512695,2,0,3,2,1
124,0,4476.922852,4416.410156,4449.743652,4373.846191,4324.615234,450,8174,8264,0,0,0,2076,389.7435913,2,0,3,2,1
125,0,4577.435547,4385.641113,4373.333008,4371.281738,4500,450,8174,8246,0,0,0,2076,397.4358826,2,0,3,2,1
126,0,4579.487305,4413.846191,4561.025391,4504.102539,4480,450,8172,8271,0,0,0,2076,405.6410217,2,0,3,2,1
127,0,4523.07666,4405.641113,4652.820313,4572.820313,4505.641113,143,8175,8309,0,0,0,2076,413.333313,2,0,3,2,1
128,0,4535.897461,4428.205078,4527.692383,4526.666504,4562.563965,500,8174,8310,0,0,0,2076,421.0256348,2,0,3,2,1
0,0,4529.230469,4504.102539,4445.641113,4343.589844,4486.666504,500,8170,8323,0,0,0,2076,428.717926,2,0,3,2,1
1,0,4468.717773,4511.794922,4431.794922,4136.922852,4450.256348,500,8162,8327,0,0,0,2076,436.4102478,2,0,3,2,1
2,0,4485.12793,4449.743652,4378.974121,4167.179199,4532.307617,133,8157,8357,0,0,0,2076,444.1025391,1,0,3,2,1
3,0,4476.410156,4498.974121,4466.153809,4430.256348,4393.333008,500,8169,8437,0,0,0,2076,452.3076782,1,0,3,2,1
4,0,4368.717773,4490.769043,4516.922852,4513.846191,4238.461426,111,8177,8485,0,0,0,2076,460,1,1,3,2,1
5,0,4331.794922,4277.436035,4283.07666,4305.641113,4502.563965,500,8175,8562,0,0,0,2076,467.6922913,1,1,3,2,1
6,0,4374.358887,4216.410156,4203.589844,4226.666504,4760,16103,8204,8538,0,0,0,2076,475.384613,1,1,3,2,1
7,0,4468.717773,4520.512695,4524.615234,4495.897461,4632.307617,500,8190,8476,0,0,0,2076,483.0769043,1,1,3,2,1
8,0,4620,4713.333008,4743.589844,4758.974121,4532.307617,500,8163,8311,0,0,0,2076,490.7692261,1,1,3,2,1
9,0,4785.641113,4565.641113,4565.641113,4671.794922,4681.538574,16125,8165,8240,0,0,0,2076,498.9743347,1,1,3,3,1
10,0,5003.589844,4668.717773,4481.025391,4500,4836.410156,500,8160,8240,0,0,0,2076,506.6666565,1,1,3,3,1
11,0,4942.563965,4768.717773,4494.358887,4451.281738,4910.769043,16338,8155,8287,0,0,0,2076,514.3589478,1,1,3,3,3
12,0,4447.692383,4351.794922,4289.230469,4329.743652,4695.897461,500,8158,8319,0,0,0,2076,522.0512695,1,1,3,3,3
13,0,4129.230469,4083.076904,4155.384277,4136.410156,4199.487305,500,8151,8344,0,0,0,2076,529.7435913,1,1,3,3,3
14,0,4161.538574,4178.461426,4165.12793,4070.769043,3996.410156,450,8147,8320,0,0,0,2076,537.4359131,1,1,3,3,3
15,0,4089.743408,4094.358887,4183.589844,4203.589844,4074.358887,16338,8147,8315,0,0,0,2076,545.6409912,1,1,3,3,3
16,0,4004.615234,4105.12793,4373.846191,4435.384277,4061.025635,0,8144,8330,0,0,0,2076,553.333313,1,1,3,3,3
17,0,4056.923096,4280.512695,4568.205078,4532.307617,4199.487305,0,8151,8343,0,0,0,2076,561.0256348,1,1,3,3,3
18,0,4073.333252,4173.333008,4482.563965,4469.743652,4513.333008,0,8150,8348,0,0,0,2076,568.7179565,1,1,3,3,3
19,0,4183.589844,4101.538574,4341.538574,4516.410156,4550.256348,0,8154,8331,0,0,0,2076,576.4102173,1,1,3,3,3
20,0,4489.230469,4373.333008,4299.487305,4487.692383,4435.384277,0,8158,8321,0,0,0,2076,584.1025391,1,1,3,3,3
21,0,4644.615234,4539.487305,4299.487305,4287.692383,4524.102539,0,8159,8321,0,0,0,2076,592.3076782,1,1,3,3,3
22,0,4610.256348,4520.512695,4437.435547,4388.205078,4556.922852,0,8167,8311,0,0,0,2076,600,1,1,3,3,3
23,0,4566.666504,4515.384277,4495.384277,4611.281738,4432.307617,0,8161,8307,0,0,0,2076,607.6923218,1,1,3,3,3
24,0,4502.563965,4428.717773,4461.538574,4501.025391,4442.05127,0,8162,8284,0,0,0,2076,615.3845825,1,1,3,3,3
25,0,4445.12793,4372.307617,4570.769043,4485.641113,4553.333008,0,8162,8272,0,0,0,2076,623.0769043,1,1,3,3,3
26,0,4493.846191,4410.256348,4590.256348,4719.487305,4494.871582,0,8167,8277,0,0,0,2076,630.7692261,1,1,3,3,3
27,0,4465.641113,4315.897461,4454.358887,4701.025391,4433.333008,0,8180,8281,0,0,0,2076,638.9743652,1,1,3,3,3
28,0,4308.717773,4176.922852,4327.692383,4401.538574,4644.102539,0,8185,8291,0,0,0,2076,646.666626,1,1,3,3,3
29,0,4309.743652,4275.897461,4362.05127,4271.794922,4671.281738,0,8176,8277,0,0,0,2076,654.3589478,1,1,3,3,3
30,0,4401.025391,4480,4546.666504,4447.179199,4312.820313,0,8181,8259,0,0,0,2076,662.0512695,1,1,3,3,3
31,0,4391.794922,4386.666504,4532.307617,4532.820313,4218.974121,0,8178,8265,0,0,0,2076,669.7435913,1,1,3,3,3
32,0,4361.025391,4134.871582,4326.153809,4367.692383,4442.05127,0,8172,8266,0,0,0,2076,677.4358521,1,1,3,3,3
33,0,4258.974121,4188.205078,4417.435547,4390.769043,4312.820313,0,8180,8281,0,0,0,2076,685.6409912,1,1,3,3,3
34,0,4234.871582,4427.179199,4550.769043,4533.333008,4003.5896,0,8189,8299,0,0,0,2076,693.333313,1,1,3,3,3
35,0,4435.384277,4507.179199,4313.846191,4314.871582,4060,0,8208,8357,0,0,0,2076,701.0256348,1,1,3,3,3
36,0,4436.410156,4385.641113,4295.384277,4069.743408,4096.922852,0,8200,8389,0,0,0,2076,708.7179565,1,1,3,3,3
